Filename:	D:\Users\Thermal_Users\LeBlanc\Ag1 ink 8_9_16.tg1d

Temperature (°C)	Weight (mg)
86.391	112.2734
88.118	112.2493
89.796	112.2241
91.391	112.1977
92.869	112.1706
94.216	112.1428
95.429	112.1144
96.513	112.0858
97.484	112.0571
98.349	112.0285
99.121	112.0001
99.818	111.9722
100.444	111.9448
101.012	111.9179
101.533	111.8916
102.009	111.8660
102.454	111.8411
102.867	111.8169
103.254	111.7933
103.618	111.7703
103.954	111.7478
104.264	111.7257
104.558	111.7039
104.834	111.6821
105.099	111.6606
105.349	111.6393
105.583	111.6183
105.805	111.5975
106.012	111.5769
106.207	111.5562
106.388	111.5358
106.558	111.5153
106.717	111.4951
106.867	111.4749
107.011	111.4548
107.149	111.4348
107.281	111.4148
107.403	111.3947
107.518	111.3746
107.629	111.3544
107.735	111.3342
107.833	111.3141
107.929	111.2939
108.019	111.2738
108.100	111.2536
108.178	111.2336
108.250	111.2135
108.325	111.1935
108.391	111.1735
108.456	111.1535
108.518	111.1335
108.579	111.1135
108.635	111.0937
108.685	111.0739
108.733	111.0542
108.779	111.0346
108.823	111.0152
108.863	110.9961
108.903	110.9771
108.940	110.9580
108.974	110.9389
109.005	110.9198
109.036	110.9007
109.066	110.8817
109.095	110.8627
109.124	110.8438
109.151	110.8250
109.175	110.8061
109.199	110.7871
109.223	110.7681
109.247	110.7493
109.266	110.7306
109.285	110.7118
109.302	110.6930
109.320	110.6741
109.334	110.6554
109.342	110.6366
109.352	110.6179
109.360	110.5991
109.369	110.5804
109.377	110.5618
109.382	110.5432
109.388	110.5247
109.393	110.5061
109.398	110.4874
109.407	110.4689
109.421	110.4504
109.443	110.4320
109.461	110.4139
109.476	110.3958
109.491	110.3779
109.505	110.3600
109.516	110.3418
109.529	110.3236
109.540	110.3055
109.544	110.2873
109.553	110.2689
109.559	110.2502
109.563	110.2315
109.567	110.2128
109.569	110.1943
109.568	110.1761
109.565	110.1583
109.563	110.1407
109.575	110.1231
109.585	110.1054
109.591	110.0874
109.593	110.0695
109.594	110.0518
109.597	110.0340
109.597	110.0162
109.598	109.9984
109.600	109.9805
109.606	109.9623
109.611	109.9439
109.613	109.9257
109.599	109.9075
109.602	109.8896
109.616	109.8716
109.623	109.8538
109.624	109.8361
109.625	109.8184
109.615	109.8009
109.609	109.7837
109.613	109.7665
109.616	109.7495
109.618	109.7325
109.627	109.7156
109.632	109.6987
109.637	109.6817
109.643	109.6648
109.646	109.6480
109.648	109.6312
109.652	109.6142
109.657	109.5971
109.661	109.5799
109.664	109.5627
109.666	109.5457
109.667	109.5287
109.665	109.5116
109.668	109.4947
109.670	109.4779
109.673	109.4611
109.675	109.4443
109.677	109.4276
109.678	109.4110
109.678	109.3944
109.679	109.3780
109.679	109.3616
109.680	109.3452
109.681	109.3289
109.682	109.3126
109.683	109.2962
109.683	109.2801
109.684	109.2640
109.685	109.2479
109.687	109.2319
109.689	109.2160
109.690	109.2002
109.693	109.1843
109.694	109.1684
109.693	109.1525
109.694	109.1367
109.694	109.1208
109.697	109.1050
109.696	109.0892
109.698	109.0736
109.699	109.0580
109.696	109.0423
109.695	109.0263
109.697	109.0092
109.698	108.9912
109.699	108.9731
109.699	108.9558
109.700	108.9393
109.697	108.9234
109.696	108.9078
109.694	108.8923
109.693	108.8771
109.692	108.8618
109.692	108.8467
109.690	108.8316
109.690	108.8167
109.689	108.8018
109.687	108.7870
109.685	108.7722
109.684	108.7573
109.684	108.7425
109.684	108.7276
109.684	108.7129
109.683	108.6982
109.683	108.6837
109.684	108.6692
109.685	108.6548
109.687	108.6404
109.686	108.6262
109.688	108.6120
109.686	108.5977
109.685	108.5834
109.684	108.5689
109.683	108.5544
109.681	108.5402
109.679	108.5260
109.674	108.5119
109.667	108.4978
109.659	108.4838
109.655	108.4698
109.650	108.4558
109.643	108.4418
109.638	108.4280
109.636	108.4141
109.636	108.4003
109.636	108.3865
109.636	108.3728
109.637	108.3592
109.636	108.3456
109.635	108.3320
109.635	108.3184
109.632	108.3047
109.628	108.2911
109.624	108.2776
109.620	108.2640
109.613	108.2506
109.606	108.2371
109.599	108.2237
109.599	108.2103
109.601	108.1971
109.600	108.1838
109.598	108.1706
109.599	108.1574
109.601	108.1443
109.602	108.1312
109.603	108.1183
109.597	108.1055
109.593	108.0928
109.590	108.0798
109.590	108.0668
109.591	108.0538
109.595	108.0408
109.596	108.0280
109.596	108.0151
109.599	108.0022
109.599	107.9895
109.601	107.9769
109.602	107.9642
109.602	107.9516
109.603	107.9390
109.610	107.9263
109.613	107.9136
109.615	107.9013
109.617	107.8888
109.617	107.8763
109.617	107.8638
109.617	107.8514
109.617	107.8391
109.615	107.8268
109.616	107.8146
109.616	107.8024
109.613	107.7901
109.612	107.7780
109.608	107.7658
109.605	107.7535
109.603	107.7414
109.600	107.7294
109.596	107.7174
109.588	107.7054
109.581	107.6935
109.578	107.6816
109.576	107.6692
109.574	107.6568
109.572	107.6444
109.570	107.6322
109.571	107.6201
109.572	107.6083
109.573	107.5971
109.574	107.5865
109.574	107.5766
109.573	107.5674
109.571	107.5586
109.572	107.5493
109.571	107.5393
109.573	107.5287
109.574	107.5177
109.572	107.5064
109.574	107.4951
109.575	107.4838
109.576	107.4725
109.577	107.4611
109.576	107.4498
109.576	107.4386
109.575	107.4273
109.574	107.4161
109.573	107.4047
109.572	107.3934
109.569	107.3820
109.564	107.3709
109.560	107.3598
109.553	107.3488
109.547	107.3376
109.540	107.3265
109.533	107.3153
109.527	107.3043
109.519	107.2932
109.515	107.2823
109.514	107.2715
109.513	107.2606
109.521	107.2499
109.523	107.2392
109.527	107.2283
109.529	107.2176
109.529	107.2069
109.527	107.1963
109.524	107.1855
109.522	107.1748
109.521	107.1642
109.519	107.1536
109.521	107.1431
109.522	107.1325
109.517	107.1219
109.513	107.1114
109.519	107.1009
109.521	107.0905
109.521	107.0800
109.521	107.0696
109.522	107.0593
109.522	107.0490
109.522	107.0388
109.517	107.0286
109.512	107.0185
109.510	107.0083
109.511	106.9983
109.511	106.9886
109.513	106.9785
109.517	106.9683
109.522	106.9581
109.525	106.9481
109.528	106.9379
109.530	106.9279
109.533	106.9180
109.533	106.9082
109.534	106.8982
109.534	106.8884
109.533	106.8786
109.533	106.8688
109.534	106.8590
109.536	106.8493
109.539	106.8395
109.537	106.8299
109.533	106.8202
109.528	106.8106
109.524	106.8010
109.518	106.7913
109.513	106.7818
109.510	106.7723
109.505	106.7628
109.503	106.7535
109.502	106.7440
109.498	106.7345
109.496	106.7252
109.493	106.7158
109.489	106.7066
109.485	106.6974
109.485	106.6882
109.487	106.6789
109.486	106.6696
109.487	106.6603
109.489	106.6511
109.488	106.6420
109.486	106.6329
109.485	106.6238
109.484	106.6149
109.483	106.6062
109.481	106.5972
109.482	106.5881
109.484	106.5790
109.486	106.5699
109.488	106.5611
109.491	106.5522
109.491	106.5432
109.491	106.5341
109.491	106.5252
109.495	106.5164
109.498	106.5078
109.497	106.4991
109.498	106.4904
109.498	106.4818
109.499	106.4731
109.497	106.4645
109.495	106.4559
109.489	106.4474
109.484	106.4388
109.476	106.4303
109.465	106.4219
109.457	106.4135
109.453	106.4051
109.447	106.3967
109.442	106.3884
109.436	106.3802
109.429	106.3719
109.425	106.3635
109.421	106.3551
109.412	106.3467
109.403	106.3387
109.396	106.3307
109.390	106.3226
109.383	106.3144
109.376	106.3063
109.368	106.2981
109.364	106.2901
109.359	106.2822
109.351	106.2744
109.354	106.2665
109.362	106.2586
109.368	106.2507
109.377	106.2429
109.385	106.2351
109.393	106.2272
109.400	106.2195
109.409	106.2118
109.414	106.2041
109.421	106.1965
109.426	106.1889
109.431	106.1812
109.435	106.1735
109.441	106.1659
109.445	106.1584
109.446	106.1509
109.447	106.1433
109.448	106.1357
109.447	106.1282
109.447	106.1208
109.448	106.1134
109.448	106.1061
109.448	106.0988
109.448	106.0916
109.448	106.0844
109.448	106.0771
109.449	106.0696
109.449	106.0622
109.449	106.0549
109.448	106.0478
109.448	106.0406
109.447	106.0335
109.446	106.0264
109.446	106.0193
109.447	106.0123
109.446	106.0053
109.443	105.9984
109.444	105.9914
109.442	105.9845
109.439	105.9777
109.435	105.9708
109.432	105.9639
109.430	105.9570
109.430	105.9503
109.424	105.9434
109.416	105.9367
109.413	105.9297
109.415	105.9230
109.416	105.9163
109.410	105.9097
109.407	105.9033
109.401	105.8967
109.391	105.8901
109.380	105.8836
109.368	105.8771
109.356	105.8705
109.345	105.8640
109.335	105.8576
109.327	105.8511
109.323	105.8447
109.313	105.8384
109.303	105.8321
109.297	105.8258
109.293	105.8196
109.285	105.8134
109.281	105.8072
109.276	105.8011
109.269	105.7950
109.260	105.7889
109.255	105.7827
109.257	105.7768
109.258	105.7707
109.255	105.7646
109.259	105.7585
109.261	105.7526
109.268	105.7467
109.276	105.7408
109.278	105.7349
109.279	105.7289
109.281	105.7230
109.285	105.7172
109.288	105.7114
109.289	105.7058
109.288	105.7000
109.285	105.6942
109.283	105.6886
109.281	105.6829
109.285	105.6772
109.293	105.6716
109.300	105.6662
109.302	105.6607
109.298	105.6552
109.295	105.6498
109.298	105.6444
109.304	105.6391
109.298	105.6336
109.302	105.6283
109.304	105.6229
109.299	105.6177
109.295	105.6125
109.296	105.6073
109.301	105.6022
109.304	105.5969
109.305	105.5917
109.307	105.5866
109.307	105.5815
109.308	105.5764
109.308	105.5712
109.309	105.5662
109.310	105.5612
109.311	105.5562
109.313	105.5512
109.313	105.5463
109.312	105.5414
109.312	105.5366
109.313	105.5318
109.314	105.5269
109.314	105.5221
109.317	105.5175
109.318	105.5127
109.321	105.5079
109.324	105.5032
109.327	105.4986
109.329	105.4941
109.331	105.4896
109.334	105.4850
109.335	105.4806
109.334	105.4761
109.336	105.4716
109.337	105.4670
109.333	105.4625
109.326	105.4582
109.318	105.4537
109.311	105.4494
109.305	105.4452
109.303	105.4409
109.297	105.4367
109.293	105.4325
109.292	105.4283
109.297	105.4241
109.300	105.4199
109.303	105.4156
109.301	105.4115
109.298	105.4075
109.293	105.4035
109.288	105.3996
109.283	105.3956
109.279	105.3916
109.271	105.3877
109.265	105.3839
109.258	105.3801
109.254	105.3763
109.248	105.3725
109.241	105.3687
109.235	105.3649
109.228	105.3611
109.224	105.3575
109.230	105.3539
109.231	105.3503
109.231	105.3466
109.229	105.3429
109.229	105.3393
109.230	105.3358
109.231	105.3323
109.230	105.3288
109.229	105.3253
109.229	105.3218
109.236	105.3183
109.245	105.3148
109.251	105.3114
109.256	105.3081
109.262	105.3046
109.263	105.3011
109.267	105.2977
109.263	105.2945
109.265	105.2913
109.262	105.2883
109.260	105.2852
109.259	105.2821
109.257	105.2790
109.252	105.2759
109.246	105.2727
109.243	105.2694
109.241	105.2664
109.245	105.2633
109.247	105.2604
109.247	105.2576
109.248	105.2545
109.250	105.2515
109.252	105.2486
109.252	105.2459
109.256	105.2431
109.271	105.2403
109.298	105.2375
109.339	105.2346
109.387	105.2319
109.452	105.2293
109.536	105.2265
109.619	105.2238
109.719	105.2211
109.808	105.2185
109.913	105.2158
110.032	105.2134
110.146	105.2110
110.273	105.2085
110.407	105.2059
110.543	105.2033
110.682	105.2006
110.821	105.1979
110.957	105.1952
111.092	105.1927
111.242	105.1901
111.396	105.1876
111.552	105.1851
111.706	105.1824
111.858	105.1799
112.008	105.1774
112.164	105.1749
112.320	105.1724
112.477	105.1698
112.637	105.1673
112.801	105.1649
112.968	105.1623
113.132	105.1597
113.296	105.1571
113.461	105.1546
113.623	105.1520
113.786	105.1495
113.946	105.1471
114.111	105.1445
114.276	105.1421
114.445	105.1398
114.615	105.1376
114.784	105.1353
114.946	105.1329
115.109	105.1304
115.277	105.1279
115.446	105.1256
115.613	105.1233
115.779	105.1208
115.946	105.1184
116.115	105.1160
116.282	105.1136
116.449	105.1113
116.620	105.1090
116.799	105.1067
116.970	105.1044
117.134	105.1021
117.299	105.0997
117.466	105.0973
117.634	105.0949
117.806	105.0927
117.972	105.0902
118.137	105.0879
118.307	105.0855
118.478	105.0833
118.648	105.0810
118.818	105.0785
118.988	105.0762
119.160	105.0739
119.331	105.0715
119.508	105.0692
119.687	105.0669
119.870	105.0646
120.050	105.0623
120.230	105.0600
120.410	105.0577
120.590	105.0554
120.769	105.0531
120.947	105.0508
121.123	105.0485
121.299	105.0461
121.474	105.0437
121.648	105.0412
121.821	105.0387
121.993	105.0364
122.163	105.0342
122.333	105.0320
122.504	105.0297
122.674	105.0274
122.843	105.0250
123.014	105.0227
123.185	105.0205
123.358	105.0182
123.533	105.0159
123.705	105.0136
123.879	105.0112
124.052	105.0091
124.224	105.0069
124.398	105.0046
124.575	105.0023
124.753	105.0000
124.927	104.9978
125.101	104.9955
125.272	104.9933
125.447	104.9911
125.622	104.9888
125.793	104.9865
125.964	104.9841
126.132	104.9819
126.303	104.9796
126.476	104.9771
126.645	104.9748
126.811	104.9725
126.976	104.9703
127.144	104.9681
127.316	104.9659
127.492	104.9636
127.671	104.9615
127.849	104.9593
128.022	104.9572
128.203	104.9550
128.382	104.9528
128.558	104.9508
128.733	104.9486
128.909	104.9464
129.077	104.9441
129.245	104.9418
129.416	104.9396
129.588	104.9373
129.766	104.9351
129.943	104.9329
130.120	104.9307
130.297	104.9285
130.472	104.9262
130.638	104.9240
130.810	104.9218
130.991	104.9195
131.170	104.9174
131.345	104.9153
131.514	104.9131
131.680	104.9109
131.851	104.9086
132.022	104.9063
132.189	104.9041
132.360	104.9020
132.535	104.9000
132.711	104.8979
132.889	104.8959
133.067	104.8939
133.241	104.8918
133.408	104.8897
133.580	104.8875
133.755	104.8855
133.926	104.8835
134.105	104.8814
134.281	104.8793
134.453	104.8772
134.622	104.8752
134.800	104.8731
134.977	104.8710
135.145	104.8690
135.308	104.8669
135.483	104.8650
135.654	104.8630
135.826	104.8612
136.003	104.8592
136.181	104.8572
136.359	104.8552
136.540	104.8533
136.720	104.8514
136.901	104.8495
137.082	104.8476
137.259	104.8455
137.438	104.8435
137.615	104.8415
137.791	104.8397
137.970	104.8380
138.143	104.8362
138.313	104.8344
138.483	104.8326
138.655	104.8308
138.825	104.8290
138.994	104.8271
139.168	104.8253
139.338	104.8236
139.506	104.8218
139.682	104.8201
139.858	104.8185
140.033	104.8168
140.207	104.8151
140.385	104.8134
140.561	104.8117
140.739	104.8099
140.916	104.8082
141.093	104.8065
141.271	104.8047
141.445	104.8032
141.623	104.8017
141.798	104.7999
141.973	104.7980
142.145	104.7961
142.321	104.7942
142.496	104.7926
142.671	104.7911
142.845	104.7894
143.017	104.7878
143.191	104.7862
143.367	104.7846
143.542	104.7829
143.716	104.7812
143.891	104.7795
144.069	104.7778
144.248	104.7762
144.424	104.7746
144.603	104.7730
144.778	104.7714
144.953	104.7698
145.130	104.7683
145.307	104.7666
145.481	104.7649
145.652	104.7631
145.821	104.7615
145.991	104.7600
146.159	104.7584
146.330	104.7569
146.506	104.7552
146.681	104.7537
146.848	104.7522
147.016	104.7507
147.185	104.7491
147.348	104.7475
147.511	104.7458
147.671	104.7442
147.837	104.7427
148.000	104.7411
148.164	104.7396
148.331	104.7380
148.500	104.7366
148.669	104.7351
148.842	104.7336
149.026	104.7320
149.208	104.7305
149.382	104.7291
149.560	104.7276
149.742	104.7261
149.925	104.7246
150.107	104.7231
150.287	104.7215
150.466	104.7199
150.646	104.7184
150.825	104.7170
151.004	104.7155
151.183	104.7140
151.358	104.7124
151.536	104.7109
151.714	104.7095
151.890	104.7081
152.063	104.7067
152.239	104.7052
152.419	104.7036
152.597	104.7021
152.776	104.7006
152.952	104.6991
153.129	104.6977
153.304	104.6963
153.477	104.6950
153.654	104.6936
153.831	104.6921
154.008	104.6907
154.182	104.6892
154.358	104.6879
154.536	104.6865
154.713	104.6850
154.888	104.6837
155.064	104.6823
155.242	104.6808
155.420	104.6793
155.599	104.6779
155.777	104.6764
155.955	104.6750
156.133	104.6736
156.308	104.6721
156.482	104.6707
156.654	104.6692
156.829	104.6677
157.000	104.6664
157.173	104.6650
157.345	104.6637
157.521	104.6623
157.693	104.6609
157.864	104.6595
158.040	104.6582
158.216	104.6571
158.396	104.6558
158.573	104.6543
158.752	104.6528
158.930	104.6513
159.109	104.6501
159.288	104.6488
159.466	104.6473
159.643	104.6458
159.821	104.6443
159.993	104.6428
160.166	104.6412
160.340	104.6398
160.511	104.6384
160.681	104.6373
160.850	104.6361
161.022	104.6347
161.194	104.6332
161.364	104.6318
161.536	104.6302
161.704	104.6286
161.871	104.6272
162.041	104.6259
162.209	104.6246
162.377	104.6234
162.546	104.6222
162.714	104.6211
162.886	104.6199
163.060	104.6183
163.235	104.6168
163.417	104.6153
163.597	104.6137
163.777	104.6119
163.955	104.6104
164.133	104.6091
164.310	104.6077
164.486	104.6063
164.660	104.6050
164.835	104.6037
165.006	104.6024
165.179	104.6010
165.353	104.5995
165.524	104.5980
165.699	104.5965
165.875	104.5950
166.051	104.5934
166.225	104.5919
166.399	104.5905
166.571	104.5890
166.748	104.5876
166.926	104.5861
167.102	104.5847
167.277	104.5834
167.449	104.5820
167.619	104.5805
167.789	104.5791
167.956	104.5778
168.124	104.5764
168.290	104.5749
168.456	104.5733
168.620	104.5717
168.785	104.5703
168.945	104.5688
169.104	104.5675
169.262	104.5661
169.421	104.5647
169.582	104.5631
169.742	104.5615
169.900	104.5599
170.059	104.5585
170.221	104.5571
170.380	104.5557
170.542	104.5541
170.702	104.5526
170.864	104.5511
171.030	104.5496
171.192	104.5481
171.359	104.5466
171.524	104.5451
171.686	104.5436
171.853	104.5421
172.014	104.5407
172.176	104.5391
172.337	104.5377
172.497	104.5363
172.651	104.5349
172.801	104.5334
172.949	104.5318
173.095	104.5302
173.240	104.5286
173.392	104.5271
173.542	104.5255
173.695	104.5239
173.850	104.5223
174.009	104.5209
174.165	104.5194
174.317	104.5179
174.465	104.5165
174.612	104.5150
174.759	104.5134
174.905	104.5119
175.054	104.5105
175.209	104.5089
175.364	104.5074
175.522	104.5058
175.679	104.5044
175.836	104.5029
175.992	104.5014
176.147	104.4999
176.301	104.4983
176.451	104.4968
176.600	104.4952
176.759	104.4936
176.916	104.4919
177.075	104.4902
177.234	104.4885
177.395	104.4870
177.557	104.4856
177.719	104.4841
177.882	104.4824
178.044	104.4807
178.205	104.4790
178.361	104.4774
178.516	104.4759
178.669	104.4744
178.823	104.4728
178.978	104.4712
179.132	104.4695
179.284	104.4679
179.440	104.4663
179.595	104.4647
179.749	104.4633
179.907	104.4618
180.066	104.4604
180.225	104.4588
180.383	104.4573
180.541	104.4557
180.701	104.4539
180.858	104.4523
181.017	104.4507
181.173	104.4490
181.330	104.4474
181.484	104.4458
181.638	104.4441
181.791	104.4425
181.945	104.4408
182.099	104.4393
182.251	104.4377
182.403	104.4361
182.555	104.4344
182.706	104.4328
182.858	104.4312
183.008	104.4295
183.156	104.4278
183.306	104.4263
183.457	104.4246
183.610	104.4229
183.762	104.4213
183.916	104.4198
184.071	104.4181
184.226	104.4164
184.383	104.4146
184.542	104.4129
184.701	104.4111
184.861	104.4095
185.020	104.4078
185.183	104.4062
185.345	104.4045
185.505	104.4029
185.666	104.4011
185.820	104.3994
185.972	104.3977
186.126	104.3958
186.279	104.3940
186.433	104.3921
186.586	104.3904
186.736	104.3887
186.887	104.3869
187.042	104.3853
187.196	104.3836
187.352	104.3818
187.513	104.3800
187.676	104.3783
187.835	104.3766
187.993	104.3748
188.149	104.3731
188.306	104.3712
188.466	104.3695
188.625	104.3679
188.786	104.3661
188.945	104.3644
189.106	104.3627
189.264	104.3609
189.420	104.3590
189.577	104.3572
189.735	104.3553
189.896	104.3534
190.058	104.3517
190.223	104.3498
190.386	104.3480
190.549	104.3461
190.709	104.3443
190.872	104.3425
191.034	104.3408
191.195	104.3389
191.356	104.3370
191.512	104.3350
191.668	104.3332
191.826	104.3313
191.984	104.3294
192.142	104.3276
192.302	104.3257
192.463	104.3238
192.621	104.3220
192.781	104.3201
192.939	104.3182
193.096	104.3163
193.251	104.3144
193.408	104.3124
193.567	104.3105
193.727	104.3087
193.885	104.3067
194.045	104.3048
194.201	104.3029
194.361	104.3011
194.521	104.2992
194.681	104.2974
194.844	104.2954
195.007	104.2934
195.169	104.2914
195.333	104.2895
195.498	104.2875
195.661	104.2856
195.824	104.2837
195.987	104.2818
196.148	104.2798
196.310	104.2778
196.469	104.2757
196.630	104.2736
196.790	104.2717
196.951	104.2698
197.110	104.2678
197.272	104.2658
197.433	104.2638
197.594	104.2617
197.755	104.2596
197.912	104.2577
198.071	104.2557
198.231	104.2537
198.390	104.2517
198.546	104.2496
198.701	104.2476
198.857	104.2455
199.009	104.2436
199.163	104.2417
199.316	104.2398
199.467	104.2377
199.622	104.2355
199.775	104.2335
199.931	104.2313
200.086	104.2292
200.242	104.2271
200.398	104.2250
200.552	104.2228
200.708	104.2206
200.863	104.2185
201.023	104.2165
201.186	104.2145
201.350	104.2125
201.516	104.2104
201.677	104.2082
201.840	104.2060
202.006	104.2039
202.173	104.2018
202.339	104.1997
202.505	104.1976
202.662	104.1957
