Filename:	D:\Users\Thermal_Users\LeBlanc\Ag2 ink 8_9_16.tg1d

Temperature (°C)	Weight (mg)
26.207	74.9123
26.285	74.9134
26.370	74.9143
26.464	74.9151
26.565	74.9156
26.667	74.9160
26.765	74.9161
26.859	74.9160
26.946	74.9158
27.025	74.9156
27.098	74.9153
27.162	74.9151
27.220	74.9149
27.272	74.9147
27.319	74.9145
27.361	74.9143
27.398	74.9141
27.431	74.9139
27.461	74.9136
27.488	74.9134
27.513	74.9132
27.534	74.9131
27.554	74.9130
27.571	74.9128
27.587	74.9128
27.602	74.9125
27.616	74.9124
27.628	74.9123
27.639	74.9122
27.650	74.9121
27.660	74.9119
27.669	74.9118
27.677	74.9117
27.685	74.9115
27.692	74.9114
27.699	74.9112
27.705	74.9111
27.711	74.9110
27.716	74.9110
27.721	74.9109
27.726	74.9108
27.730	74.9107
27.734	74.9108
27.738	74.9109
27.742	74.9108
27.745	74.9106
27.748	74.9104
27.751	74.9103
27.754	74.9102
27.756	74.9102
27.759	74.9101
27.761	74.9101
27.763	74.9101
27.765	74.9101
27.767	74.9099
27.769	74.9099
27.771	74.9098
27.773	74.9097
27.774	74.9095
27.776	74.9094
27.777	74.9094
27.778	74.9093
27.780	74.9092
27.781	74.9093
27.785	74.9092
27.789	74.9092
27.794	74.9092
27.801	74.9093
27.810	74.9093
27.821	74.9094
27.834	74.9095
27.848	74.9097
27.863	74.9099
27.880	74.9099
27.898	74.9099
27.918	74.9099
27.938	74.9099
27.960	74.9101
27.982	74.9103
28.006	74.9103
28.029	74.9103
28.054	74.9103
28.078	74.9102
28.104	74.9102
28.130	74.9101
28.156	74.9101
28.182	74.9100
28.209	74.9099
28.236	74.9100
28.264	74.9100
28.291	74.9100
28.319	74.9100
28.348	74.9101
28.376	74.9100
28.405	74.9099
28.433	74.9099
28.461	74.9099
28.490	74.9099
28.519	74.9099
28.548	74.9099
28.577	74.9100
28.607	74.9100
28.636	74.9100
28.666	74.9099
28.696	74.9098
28.736	74.9097
28.887	74.9102
29.309	74.9144
29.940	74.9201
30.654	74.9249
31.377	74.9279
32.073	74.9301
32.724	74.9316
33.320	74.9321
33.857	74.9317
34.336	74.9309
19.680	74.9297
14.033	74.9285
12.778	74.9277
13.582	74.9268
15.282	74.9257
17.294	74.9258
19.348	74.9259
21.320	74.9399
23.157	75.0073
24.845	75.0754
26.401	75.1253
27.838	75.1576
29.167	75.1772
30.403	75.1885
31.553	75.1947
32.629	75.1980
33.637	75.1995
34.580	75.2002
35.463	75.2001
36.292	75.1996
37.075	75.1989
37.812	75.1982
38.512	75.1975
39.177	75.1967
39.809	75.1958
40.414	75.1950
40.994	75.1941
41.540	75.1933
42.065	75.1923
42.573	75.1912
43.063	75.1901
43.534	75.1890
43.984	75.1879
44.416	75.1865
44.834	75.1853
45.235	75.1840
45.622	75.1828
45.999	75.1817
46.364	75.1804
46.718	75.1792
47.063	75.1779
47.398	75.1767
47.724	75.1755
48.041	75.1742
48.345	75.1730
48.640	75.1717
48.928	75.1705
49.215	75.1694
49.495	75.1684
49.770	75.1672
50.045	75.1660
50.312	75.1646
50.576	75.1634
50.832	75.1622
51.085	75.1611
51.334	75.1600
51.578	75.1589
51.817	75.1578
52.054	75.1567
52.288	75.1556
52.518	75.1544
52.746	75.1534
52.967	75.1522
53.184	75.1510
53.398	75.1499
53.611	75.1486
53.822	75.1475
54.030	75.1463
54.239	75.1453
54.445	75.1445
54.650	75.1436
54.854	75.1425
55.055	75.1413
55.253	75.1401
55.448	75.1389
55.645	75.1378
55.850	75.1368
56.040	75.1357
56.223	75.1348
56.418	75.1337
56.619	75.1326
56.823	75.1314
57.026	75.1302
57.228	75.1289
57.431	75.1278
57.634	75.1266
57.834	75.1254
58.034	75.1243
58.231	75.1233
58.427	75.1222
58.621	75.1211
58.817	75.1200
59.007	75.1189
59.193	75.1178
59.382	75.1167
59.568	75.1155
59.757	75.1143
59.951	75.1131
60.141	75.1118
60.329	75.1105
60.514	75.1091
60.697	75.1078
60.882	75.1066
61.066	75.1054
61.248	75.1041
61.432	75.1029
61.616	75.1017
61.800	75.1006
61.983	75.0995
62.164	75.0982
62.347	75.0969
62.529	75.0956
62.711	75.0943
62.892	75.0930
63.074	75.0917
63.253	75.0904
63.434	75.0892
63.619	75.0879
63.803	75.0866
63.979	75.0852
64.157	75.0840
64.334	75.0827
64.511	75.0815
64.687	75.0804
64.863	75.0790
65.042	75.0774
65.224	75.0757
65.404	75.0742
65.586	75.0729
65.765	75.0714
65.948	75.0701
66.131	75.0686
66.312	75.0672
66.491	75.0658
66.667	75.0644
66.846	75.0629
67.027	75.0616
67.206	75.0600
67.387	75.0585
67.570	75.0569
67.752	75.0554
67.933	75.0540
68.111	75.0525
68.285	75.0509
68.461	75.0493
68.635	75.0476
68.809	75.0460
68.984	75.0446
69.162	75.0431
69.341	75.0414
69.527	75.0397
69.702	75.0382
69.873	75.0368
70.046	75.0353
70.223	75.0336
70.403	75.0319
70.586	75.0302
70.766	75.0286
70.948	75.0270
71.130	75.0253
71.311	75.0237
71.492	75.0221
71.675	75.0206
71.850	75.0188
72.030	75.0172
72.210	75.0154
72.387	75.0137
72.566	75.0119
72.744	75.0102
72.922	75.0086
73.100	75.0068
73.277	75.0050
73.456	75.0033
73.634	75.0015
73.813	74.9997
73.991	74.9978
74.169	74.9958
74.348	74.9939
74.527	74.9921
74.704	74.9904
74.880	74.9886
75.058	74.9868
75.235	74.9850
75.411	74.9831
75.587	74.9812
75.764	74.9793
75.941	74.9773
76.115	74.9753
76.290	74.9732
76.464	74.9713
76.637	74.9694
76.815	74.9677
76.995	74.9659
77.172	74.9639
77.347	74.9618
77.526	74.9599
77.701	74.9580
77.878	74.9560
78.055	74.9540
78.229	74.9520
78.406	74.9500
78.581	74.9482
78.754	74.9465
78.929	74.9448
79.105	74.9428
79.279	74.9408
79.452	74.9387
79.627	74.9367
79.803	74.9346
79.980	74.9324
80.156	74.9301
80.331	74.9280
80.505	74.9258
80.676	74.9236
80.870	74.9213
81.045	74.9192
81.216	74.9170
81.388	74.9149
81.564	74.9130
81.747	74.9108
81.927	74.9085
82.113	74.9065
82.288	74.9043
82.451	74.9022
82.613	74.9001
82.783	74.8981
82.951	74.8960
83.118	74.8938
83.292	74.8915
83.473	74.8892
83.657	74.8870
83.836	74.8849
84.005	74.8828
84.175	74.8806
84.342	74.8784
84.507	74.8762
84.674	74.8737
84.841	74.8713
85.011	74.8691
85.183	74.8670
85.357	74.8648
85.532	74.8626
85.706	74.8604
85.884	74.8581
86.063	74.8557
86.246	74.8532
86.433	74.8508
86.615	74.8485
86.786	74.8462
86.961	74.8438
87.137	74.8413
87.316	74.8389
87.501	74.8366
87.684	74.8342
87.862	74.8319
88.047	74.8296
88.219	74.8273
88.396	74.8250
88.571	74.8227
88.750	74.8203
88.933	74.8180
89.109	74.8155
89.272	74.8130
89.453	74.8105
89.636	74.8080
89.816	74.8054
89.991	74.8030
90.161	74.8006
90.344	74.7981
90.509	74.7957
90.672	74.7932
90.838	74.7908
91.003	74.7883
91.177	74.7858
91.364	74.7832
91.531	74.7806
91.710	74.7782
91.895	74.7757
92.066	74.7733
92.249	74.7707
92.430	74.7683
92.608	74.7657
92.787	74.7634
92.966	74.7610
93.145	74.7583
93.323	74.7556
93.502	74.7529
93.678	74.7503
93.856	74.7478
94.030	74.7453
94.205	74.7427
94.380	74.7401
94.557	74.7375
94.734	74.7348
94.907	74.7322
95.075	74.7294
95.243	74.7266
95.413	74.7237
95.582	74.7210
95.762	74.7183
95.944	74.7156
96.122	74.7130
96.299	74.7104
96.476	74.7077
96.653	74.7050
96.828	74.7024
97.005	74.6996
97.184	74.6968
97.362	74.6939
97.539	74.6910
97.714	74.6883
97.890	74.6856
98.063	74.6830
98.229	74.6804
98.394	74.6775
98.562	74.6747
98.733	74.6720
98.902	74.6692
99.071	74.6663
99.239	74.6636
99.410	74.6608
99.582	74.6580
99.751	74.6550
99.922	74.6520
100.101	74.6492
100.288	74.6464
100.475	74.6435
100.661	74.6406
100.841	74.6377
101.018	74.6348
101.196	74.6320
101.372	74.6291
101.544	74.6264
101.711	74.6235
101.879	74.6206
102.049	74.6176
102.223	74.6148
102.396	74.6118
102.572	74.6087
102.747	74.6058
102.925	74.6028
103.099	74.5999
103.277	74.5971
103.456	74.5941
103.632	74.5912
103.808	74.5883
103.978	74.5853
104.152	74.5823
104.325	74.5793
104.497	74.5763
104.681	74.5734
104.866	74.5704
105.048	74.5673
105.224	74.5642
105.390	74.5611
105.577	74.5580
105.760	74.5551
105.940	74.5520
106.117	74.5489
106.293	74.5459
106.470	74.5429
106.648	74.5400
106.822	74.5370
106.995	74.5339
107.172	74.5308
107.362	74.5276
107.546	74.5244
107.728	74.5212
107.911	74.5180
108.093	74.5147
108.268	74.5114
108.443	74.5081
108.615	74.5049
108.785	74.5018
108.958	74.4988
109.135	74.4958
109.319	74.4928
109.498	74.4896
109.669	74.4865
109.835	74.4833
110.005	74.4801
110.180	74.4768
110.351	74.4735
110.531	74.4702
110.719	74.4670
110.904	74.4638
111.083	74.4605
111.260	74.4573
111.436	74.4540
111.606	74.4506
111.771	74.4472
111.945	74.4439
112.119	74.4407
112.283	74.4375
112.447	74.4343
112.610	74.4311
112.770	74.4279
112.933	74.4246
113.099	74.4212
113.276	74.4178
113.455	74.4145
113.631	74.4112
113.811	74.4079
113.988	74.4046
114.155	74.4011
114.326	74.3977
114.502	74.3943
114.677	74.3910
114.845	74.3877
115.017	74.3843
115.188	74.3809
115.360	74.3776
115.536	74.3743
115.712	74.3708
115.885	74.3675
116.067	74.3640
116.248	74.3606
116.426	74.3571
116.597	74.3535
116.760	74.3500
116.929	74.3466
117.099	74.3432
117.271	74.3397
117.445	74.3362
117.623	74.3327
117.807	74.3291
117.986	74.3256
118.166	74.3221
118.343	74.3186
118.520	74.3151
118.693	74.3116
118.868	74.3080
119.045	74.3043
119.228	74.3008
119.410	74.2972
119.589	74.2936
119.766	74.2901
119.938	74.2866
120.107	74.2829
120.282	74.2792
120.457	74.2756
120.631	74.2719
120.806	74.2681
120.984	74.2644
121.157	74.2606
121.334	74.2569
121.514	74.2534
121.694	74.2499
121.870	74.2462
122.051	74.2424
122.234	74.2384
122.413	74.2345
122.590	74.2308
122.767	74.2271
122.945	74.2234
123.121	74.2196
123.297	74.2158
123.471	74.2120
123.647	74.2081
123.822	74.2044
123.993	74.2005
124.161	74.1966
124.333	74.1928
124.499	74.1891
124.668	74.1853
124.834	74.1814
124.998	74.1777
125.158	74.1739
125.327	74.1700
125.493	74.1659
125.661	74.1618
125.832	74.1578
126.001	74.1538
126.175	74.1498
126.345	74.1458
126.517	74.1418
126.691	74.1377
126.864	74.1336
127.037	74.1295
127.204	74.1254
127.380	74.1215
127.558	74.1176
127.735	74.1136
127.916	74.1096
128.094	74.1055
128.278	74.1014
128.459	74.0973
128.635	74.0930
128.813	74.0888
128.986	74.0847
129.157	74.0806
129.331	74.0766
129.504	74.0725
129.675	74.0685
129.846	74.0644
130.017	74.0602
130.187	74.0560
130.354	74.0518
130.523	74.0475
130.690	74.0434
130.860	74.0392
131.029	74.0350
131.201	74.0308
131.368	74.0266
131.540	74.0225
131.715	74.0182
131.893	74.0138
132.075	74.0095
132.255	74.0053
132.434	74.0009
132.611	73.9967
132.786	73.9924
132.963	73.9881
133.137	73.9837
133.309	73.9793
133.479	73.9747
133.649	73.9702
133.820	73.9658
133.990	73.9615
134.161	73.9571
134.326	73.9528
134.495	73.9485
134.664	73.9441
134.833	73.9397
135.005	73.9354
135.180	73.9311
135.358	73.9267
135.533	73.9222
135.708	73.9176
135.884	73.9130
136.065	73.9086
136.245	73.9041
136.424	73.8997
136.603	73.8954
136.783	73.8909
136.961	73.8864
137.135	73.8818
137.314	73.8771
137.489	73.8724
137.665	73.8678
137.847	73.8633
138.023	73.8588
138.198	73.8543
138.372	73.8498
138.546	73.8452
138.719	73.8406
138.887	73.8360
139.062	73.8314
139.236	73.8268
139.411	73.8221
139.586	73.8176
139.760	73.8130
139.932	73.8083
140.100	73.8036
140.269	73.7990
140.433	73.7943
140.597	73.7896
140.759	73.7849
140.921	73.7802
141.081	73.7755
141.249	73.7709
141.424	73.7663
141.601	73.7617
141.779	73.7570
141.957	73.7522
142.138	73.7473
142.313	73.7425
142.492	73.7379
142.673	73.7332
142.851	73.7285
143.026	73.7237
143.204	73.7189
143.384	73.7141
143.563	73.7093
143.738	73.7045
143.913	73.6997
144.087	73.6949
144.261	73.6901
144.433	73.6853
144.606	73.6805
144.778	73.6757
144.951	73.6710
145.124	73.6663
145.298	73.6614
145.472	73.6566
145.649	73.6518
145.824	73.6470
145.995	73.6422
146.169	73.6374
146.338	73.6326
146.512	73.6277
146.686	73.6228
146.854	73.6180
147.018	73.6133
147.185	73.6085
147.347	73.6037
147.510	73.5989
147.671	73.5941
147.832	73.5890
147.994	73.5840
148.161	73.5790
148.324	73.5740
148.488	73.5691
148.650	73.5643
148.823	73.5594
149.000	73.5544
149.181	73.5496
149.362	73.5448
149.546	73.5400
149.725	73.5352
149.903	73.5302
150.082	73.5252
150.259	73.5203
150.434	73.5154
150.614	73.5104
150.791	73.5056
150.971	73.5007
151.151	73.4956
151.327	73.4906
151.506	73.4857
151.691	73.4807
151.867	73.4758
152.036	73.4709
152.211	73.4659
152.385	73.4610
152.556	73.4561
152.729	73.4510
152.903	73.4460
153.078	73.4410
153.248	73.4360
153.420	73.4310
153.596	73.4260
153.769	73.4210
153.940	73.4160
154.115	73.4111
154.286	73.4062
154.465	73.4016
154.646	73.3966
154.825	73.3916
155.001	73.3866
155.174	73.3815
155.346	73.3764
155.516	73.3712
155.688	73.3662
155.865	73.3612
156.039	73.3563
156.217	73.3513
156.398	73.3463
156.575	73.3414
156.754	73.3364
156.931	73.3314
157.108	73.3266
157.285	73.3217
157.460	73.3167
157.633	73.3116
157.806	73.3065
157.972	73.3015
158.139	73.2965
158.304	73.2915
158.473	73.2863
158.639	73.2813
158.804	73.2763
158.973	73.2714
159.141	73.2663
159.312	73.2613
159.484	73.2563
159.660	73.2514
159.831	73.2464
160.004	73.2416
160.177	73.2366
160.353	73.2315
160.529	73.2265
160.706	73.2216
160.881	73.2166
161.057	73.2117
161.233	73.2068
161.410	73.2018
161.589	73.1969
161.767	73.1918
161.948	73.1868
162.128	73.1819
162.306	73.1770
162.482	73.1722
162.657	73.1674
162.834	73.1623
163.004	73.1573
163.173	73.1522
163.341	73.1472
163.509	73.1423
163.684	73.1373
163.860	73.1323
164.031	73.1274
164.202	73.1223
164.377	73.1174
164.551	73.1126
164.727	73.1078
164.898	73.1029
165.073	73.0979
165.246	73.0930
165.421	73.0881
165.595	73.0832
165.772	73.0783
165.953	73.0735
166.131	73.0687
166.304	73.0637
166.477	73.0587
166.656	73.0537
166.838	73.0488
167.019	73.0438
167.200	73.0390
167.382	73.0341
167.560	73.0292
167.737	73.0243
167.913	73.0195
168.086	73.0147
168.255	73.0100
168.426	73.0052
168.595	73.0003
168.763	72.9954
168.929	72.9905
169.095	72.9857
169.257	72.9809
169.418	72.9761
169.576	72.9715
169.735	72.9669
169.895	72.9620
170.052	72.9572
170.212	72.9524
170.374	72.9476
170.534	72.9428
170.693	72.9380
170.854	72.9332
171.015	72.9285
171.176	72.9238
171.337	72.9191
171.499	72.9142
171.660	72.9094
171.822	72.9048
171.987	72.9001
172.151	72.8953
172.315	72.8907
172.484	72.8860
172.650	72.8814
172.815	72.8767
172.978	72.8720
173.140	72.8673
173.299	72.8626
173.455	72.8580
173.611	72.8534
173.764	72.8488
173.915	72.8443
174.065	72.8397
174.215	72.8351
174.367	72.8305
174.516	72.8259
174.667	72.8215
174.816	72.8170
174.971	72.8126
175.122	72.8081
175.273	72.8036
175.430	72.7990
175.584	72.7944
175.739	72.7898
175.895	72.7853
176.050	72.7810
176.206	72.7766
176.360	72.7721
176.516	72.7676
176.680	72.7631
176.841	72.7587
177.001	72.7542
177.156	72.7499
177.319	72.7456
177.483	72.7412
177.639	72.7368
177.800	72.7324
177.960	72.7281
178.118	72.7237
178.271	72.7194
178.423	72.7150
178.579	72.7108
178.735	72.7065
178.886	72.7022
179.041	72.6979
179.201	72.6935
179.359	72.6891
179.520	72.6847
179.680	72.6805
179.840	72.6763
179.998	72.6721
180.155	72.6680
180.308	72.6638
180.460	72.6596
180.613	72.6553
180.763	72.6511
180.914	72.6469
181.068	72.6429
181.226	72.6387
181.379	72.6346
181.531	72.6304
181.686	72.6263
181.845	72.6221
182.003	72.6181
182.159	72.6142
182.318	72.6101
182.476	72.6061
182.634	72.6020
182.787	72.5978
182.935	72.5938
183.083	72.5896
183.234	72.5855
183.384	72.5814
183.532	72.5774
183.680	72.5735
183.828	72.5696
183.979	72.5657
184.130	72.5617
184.281	72.5577
184.435	72.5538
184.590	72.5498
184.746	72.5457
184.903	72.5418
185.061	72.5380
185.219	72.5343
185.375	72.5304
185.531	72.5265
185.686	72.5226
185.842	72.5187
185.997	72.5148
186.152	72.5111
186.306	72.5074
186.460	72.5037
186.618	72.5000
186.777	72.4964
186.937	72.4927
187.098	72.4889
187.258	72.4851
187.416	72.4813
187.574	72.4775
187.732	72.4734
187.889	72.4696
188.045	72.4659
188.201	72.4622
188.355	72.4586
188.508	72.4549
188.664	72.4514
188.816	72.4475
188.971	72.4439
189.123	72.4402
189.276	72.4364
189.432	72.4327
189.586	72.4290
189.741	72.4254
189.896	72.4218
190.048	72.4182
190.204	72.4146
190.356	72.4111
190.508	72.4075
190.660	72.4039
190.811	72.4002
190.964	72.3966
191.119	72.3931
191.275	72.3896
191.433	72.3860
191.588	72.3825
191.750	72.3790
191.913	72.3756
192.078	72.3722
192.246	72.3688
192.418	72.3653
192.590	72.3618
192.760	72.3582
192.924	72.3547
193.087	72.3512
193.247	72.3478
193.409	72.3443
193.569	72.3409
193.733	72.3375
193.894	72.3341
194.050	72.3307
194.206	72.3272
194.365	72.3238
194.524	72.3204
194.682	72.3169
194.839	72.3135
194.996	72.3100
195.153	72.3066
195.316	72.3033
195.481	72.3000
195.648	72.2965
195.816	72.2932
195.984	72.2898
196.150	72.2865
196.315	72.2832
196.479	72.2798
196.638	72.2764
196.797	72.2732
196.954	72.2699
197.109	72.2665
197.262	72.2631
197.419	72.2596
197.575	72.2562
197.732	72.2529
197.890	72.2496
198.046	72.2463
198.203	72.2430
198.360	72.2399
198.519	72.2366
198.678	72.2333
198.837	72.2302
199.003	72.2269
199.167	72.2236
199.336	72.2202
199.505	72.2171
199.676	72.2140
199.845	72.2107
200.013	72.2075
200.180	72.2044
200.348	72.2010
200.511	72.1977
200.678	72.1945
200.842	72.1912
201.003	72.1879
201.165	72.1846
201.324	72.1814
201.480	72.1782
201.638	72.1749
201.798	72.1717
201.961	72.1685
202.122	72.1653
202.286	72.1622
202.450	72.1590
202.616	72.1558
202.780	72.1527
202.942	72.1495
203.108	72.1462
203.272	72.1430
203.435	72.1398
203.598	72.1367
203.758	72.1336
203.920	72.1305
204.080	72.1272
204.238	72.1241
204.396	72.1209
204.555	72.1176
204.711	72.1143
204.867	72.1109
205.026	72.1077
205.189	72.1044
205.348	72.1015
205.506	72.0983
205.663	72.0952
205.822	72.0921
205.981	72.0889
206.139	72.0858
206.295	72.0825
206.453	72.0793
206.613	72.0762
206.768	72.0731
206.922	72.0699
207.078	72.0667
207.236	72.0633
207.396	72.0598
207.555	72.0565
207.718	72.0532
207.881	72.0501
208.043	72.0467
208.204	72.0433
208.365	72.0400
208.525	72.0367
208.685	72.0336
208.844	72.0303
209.002	72.0271
209.158	72.0238
209.315	72.0206
209.476	72.0173
209.638	72.0141
209.803	72.0108
209.964	72.0076
210.124	72.0043
210.279	72.0011
210.433	71.9978
210.589	71.9947
210.748	71.9917
210.908	71.9886
211.069	71.9857
211.234	71.9828
211.397	71.9800
211.564	71.9770
211.732	71.9741
211.898	71.9714
212.062	71.9688
212.224	71.9661
212.379	71.9634
212.537	71.9607
212.698	71.9579
212.862	71.9551
213.025	71.9523
213.190	71.9495
213.358	71.9466
213.522	71.9436
213.687	71.9406
213.848	71.9374
214.006	71.9343
214.163	71.9313
214.321	71.9282
214.482	71.9251
214.640	71.9220
214.802	71.9189
214.964	71.9158
215.128	71.9127
215.291	71.9097
215.455	71.9066
215.615	71.9035
215.776	71.9004
215.938	71.8973
216.101	71.8942
216.264	71.8912
216.425	71.8881
216.588	71.8850
216.752	71.8820
216.912	71.8788
217.072	71.8757
217.234	71.8726
217.396	71.8696
217.557	71.8665
217.719	71.8635
217.880	71.8603
218.042	71.8573
218.203	71.8541
218.363	71.8511
218.522	71.8480
218.682	71.8449
218.842	71.8417
219.002	71.8386
219.163	71.8355
219.324	71.8324
219.486	71.8293
219.646	71.8262
219.806	71.8232
219.966	71.8201
220.125	71.8171
220.286	71.8139
220.445	71.8109
220.605	71.8078
220.766	71.8047
220.920	71.8016
221.080	71.7985
221.240	71.7955
221.397	71.7924
221.549	71.7893
221.701	71.7863
221.852	71.7832
222.003	71.7800
222.152	71.7769
222.299	71.7738
222.448	71.7708
222.597	71.7677
222.746	71.7645
222.897	71.7614
223.051	71.7584
223.208	71.7553
223.369	71.7522
223.529	71.7490
223.688	71.7459
223.844	71.7427
223.997	71.7397
224.153	71.7366
224.318	71.7335
224.485	71.7305
224.655	71.7274
224.825	71.7244
224.995	71.7213
225.162	71.7180
225.322	71.7149
225.481	71.7118
225.639	71.7087
225.797	71.7056
225.951	71.7026
226.105	71.6994
226.259	71.6961
226.413	71.6930
226.570	71.6900
226.726	71.6870
226.881	71.6839
227.034	71.6809
227.184	71.6778
227.338	71.6747
227.496	71.6716
227.655	71.6685
227.814	71.6654
227.972	71.6623
228.128	71.6592
228.286	71.6560
228.449	71.6529
228.612	71.6497
228.781	71.6466
228.945	71.6435
229.107	71.6404
229.266	71.6374
229.424	71.6344
229.576	71.6313
229.727	71.6281
229.881	71.6249
230.037	71.6216
230.195	71.6186
230.351	71.6158
230.513	71.6128
230.676	71.6097
230.838	71.6066
230.998	71.6035
231.159	71.6003
231.322	71.5972
231.483	71.5941
231.644	71.5911
231.803	71.5879
231.963	71.5849
232.119	71.5818
232.269	71.5786
232.419	71.5754
232.570	71.5723
232.719	71.5692
232.868	71.5661
233.017	71.5630
233.168	71.5599
233.320	71.5565
233.469	71.5536
233.619	71.5505
233.770	71.5473
233.924	71.5443
234.075	71.5411
234.229	71.5382
234.387	71.5351
234.548	71.5321
234.716	71.5291
234.882	71.5260
235.045	71.5229
235.203	71.5198
235.358	71.5167
235.510	71.5136
235.660	71.5106
235.807	71.5075
235.954	71.5043
236.107	71.5011
236.259	71.4980
236.411	71.4948
236.563	71.4917
236.717	71.4886
236.877	71.4856
237.034	71.4826
237.192	71.4795
237.346	71.4766
237.496	71.4737
237.644	71.4706
237.790	71.4675
