Filename:	D:\Users\Thermal_Users\LeBlanc\Ag2_8_31_16.tg1d

Temperature (°C)	Weight % (%)
26.199	99.9922
26.278	99.9985
26.366	100.0021
26.461	100.0089
26.561	100.0136
26.663	100.0150
26.762	100.0160
26.856	100.0204
26.942	100.0217
27.022	100.0211
27.094	100.0253
27.159	100.0257
27.217	100.0237
27.269	100.0158
27.315	100.0111
27.357	100.0069
27.395	99.9993
27.428	99.9961
27.459	99.9977
27.485	99.9999
27.509	100.0030
27.531	100.0035
27.551	100.0015
27.570	99.9994
27.586	99.9968
27.602	99.9950
27.616	99.9943
27.628	99.9943
27.640	99.9930
27.651	99.9946
27.661	99.9961
27.670	99.9956
27.678	99.9949
27.685	99.9945
27.693	99.9941
27.699	99.9936
27.705	99.9930
27.711	99.9928
27.717	99.9925
27.722	99.9924
27.726	99.9938
27.731	99.9987
27.734	100.0056
27.738	100.0074
27.742	100.0050
27.745	100.0038
27.748	100.0048
27.751	100.0076
27.754	100.0024
27.757	99.9994
27.759	99.9962
27.761	99.9942
27.764	99.9905
27.765	99.9873
27.767	99.9866
27.769	99.9863
27.770	99.9874
27.772	99.9885
27.773	99.9886
27.774	99.9880
27.776	99.9871
27.779	99.9867
27.790	99.9871
27.807	99.9881
27.834	99.9906
27.884	99.9924
28.054	99.9949
28.527	100.0038
29.232	100.0156
30.038	100.0255
30.867	100.0318
31.679	100.0349
32.450	100.0353
33.170	100.0337
33.833	100.0315
24.059	100.0308
16.529	100.0369
15.284	100.0328
17.039	100.0246
20.141	100.0211
23.770	100.0195
27.534	100.0199
31.245	100.0166
34.830	100.0120
38.258	100.0097
41.536	100.0050
44.674	100.0005
47.692	99.9973
50.601	99.9901
53.414	99.9790
56.154	99.9811
58.827	99.9841
61.436	99.9856
63.985	99.9851
66.480	99.9889
68.921	99.9904
71.314	99.9871
73.676	99.9823
76.002	99.9832
78.297	99.9861
80.564	99.9883
81.015	99.9878
83.236	99.9784
85.393	99.9670
87.436	99.9574
89.327	99.9519
91.041	99.9509
92.578	99.9481
93.951	99.9460
95.173	99.9443
96.269	99.9380
97.243	99.9276
98.120	99.9167
98.906	99.9078
99.619	99.9005
100.265	99.8931
100.858	99.8876
101.398	99.8828
101.892	99.8762
102.354	99.8665
102.781	99.8625
103.175	99.8562
103.545	99.8480
103.889	99.8415
104.216	99.8355
104.520	99.8285
104.802	99.8217
105.069	99.8133
105.315	99.8028
105.551	99.7977
105.774	99.7934
105.984	99.7886
106.180	99.7838
106.366	99.7824
106.543	99.7867
106.717	99.7921
106.887	99.7925
107.051	99.7778
107.207	99.7650
107.362	99.7552
107.500	99.7420
107.634	99.7337
107.761	99.7291
107.877	99.7181
107.991	99.7067
108.099	99.6970
108.199	99.6881
108.287	99.6799
108.376	99.6728
108.457	99.6668
108.532	99.6598
108.599	99.6521
108.659	99.6451
108.712	99.6370
108.758	99.6282
108.807	99.6226
108.852	99.6175
108.896	99.6110
108.936	99.6050
108.969	99.6000
109.003	99.5948
109.032	99.5895
109.063	99.5839
109.090	99.5781
109.116	99.5728
109.140	99.5670
109.166	99.5610
109.188	99.5549
109.218	99.5484
109.251	99.5401
109.279	99.5349
109.310	99.5305
109.345	99.5241
109.375	99.5159
109.401	99.5089
109.417	99.5029
109.417	99.4925
109.415	99.4809
109.408	99.4774
109.395	99.4750
109.379	99.4722
109.363	99.4682
109.351	99.4637
109.340	99.4588
109.334	99.4537
109.326	99.4486
109.325	99.4436
109.318	99.4339
109.318	99.4281
109.314	99.4230
109.314	99.4169
109.306	99.4136
109.295	99.4077
109.292	99.3985
109.290	99.3926
109.294	99.3884
109.300	99.3844
109.308	99.3801
109.317	99.3748
109.323	99.3690
109.326	99.3636
109.331	99.3577
109.334	99.3528
109.336	99.3461
109.344	99.3409
109.353	99.3362
109.361	99.3307
109.371	99.3257
109.379	99.3208
109.389	99.3159
109.397	99.3106
109.401	99.3055
109.413	99.3004
109.417	99.2957
109.420	99.2909
109.419	99.2855
109.417	99.2801
109.418	99.2746
109.421	99.2668
109.426	99.2609
109.428	99.2565
109.431	99.2519
109.440	99.2470
109.453	99.2418
109.467	99.2363
109.492	99.2305
109.520	99.2251
109.550	99.2191
109.576	99.2136
109.598	99.2082
109.617	99.2037
109.635	99.1995
109.656	99.1996
109.677	99.2017
109.695	99.1981
109.716	99.2061
109.736	99.2087
109.753	99.2042
109.765	99.2059
109.778	99.2036
109.791	99.1951
109.799	99.1926
109.803	99.1866
109.805	99.1797
109.806	99.1765
109.805	99.1769
109.805	99.1710
109.802	99.1602
109.799	99.1509
109.797	99.1442
109.800	99.1331
109.802	99.1228
109.803	99.1193
109.804	99.1235
109.804	99.1316
109.804	99.1351
109.806	99.1301
109.808	99.1262
109.814	99.1223
109.818	99.1075
109.822	99.0941
109.827	99.0853
109.832	99.0785
109.840	99.0675
109.847	99.0570
109.853	99.0480
109.858	99.0445
109.858	99.0450
109.858	99.0465
109.861	99.0404
109.863	99.0407
109.868	99.0334
109.875	99.0142
109.879	99.0021
109.884	99.0020
109.887	98.9957
109.891	98.9909
109.897	98.9848
109.900	98.9863
109.902	98.9869
109.903	98.9860
109.904	98.9837
109.907	98.9841
109.911	98.9762
109.917	98.9612
109.915	98.9518
109.925	98.9519
109.929	98.9443
109.932	98.9374
109.935	98.9321
109.936	98.9225
109.940	98.9158
109.938	98.9125
109.939	98.9143
109.939	98.9225
109.942	98.9262
109.942	98.9214
109.944	98.9102
109.946	98.9025
109.946	98.8925
109.948	98.8830
109.952	98.8743
109.953	98.8640
109.958	98.8575
109.955	98.8518
109.953	98.8478
109.950	98.8464
109.949	98.8523
109.946	98.8595
109.940	98.8645
109.937	98.8616
109.937	98.8515
109.937	98.8381
109.930	98.8278
109.931	98.8228
109.932	98.8190
109.932	98.8087
109.929	98.7966
109.931	98.7853
109.932	98.7732
109.936	98.7655
109.937	98.7755
109.938	98.7857
109.936	98.7841
109.936	98.7718
109.935	98.7580
109.936	98.7505
109.937	98.7565
109.938	98.7608
109.946	98.7555
109.956	98.7490
109.964	98.7422
109.964	98.7352
109.959	98.7305
109.953	98.7232
109.944	98.7161
109.941	98.7137
109.938	98.7121
109.929	98.7057
109.921	98.7062
109.906	98.7064
109.897	98.6982
109.889	98.6846
109.881	98.6722
109.875	98.6697
109.872	98.6738
109.870	98.6719
109.865	98.6737
109.860	98.6758
109.856	98.6758
109.857	98.6733
109.858	98.6683
109.858	98.6626
109.862	98.6554
109.863	98.6475
109.869	98.6379
109.867	98.6319
109.872	98.6277
109.868	98.6277
109.865	98.6281
109.861	98.6305
109.853	98.6253
109.844	98.6155
109.836	98.6113
109.829	98.6060
109.822	98.6027
109.814	98.6007
109.810	98.5931
109.807	98.5875
109.806	98.5818
109.803	98.5694
109.803	98.5600
109.802	98.5568
109.801	98.5580
109.801	98.5576
109.803	98.5545
109.803	98.5506
109.805	98.5465
109.805	98.5448
109.808	98.5396
109.809	98.5354
109.813	98.5241
109.808	98.5159
109.810	98.5236
109.814	98.5275
109.817	98.5242
109.815	98.5191
109.814	98.5164
109.813	98.5114
109.817	98.5054
109.806	98.5020
109.798	98.5018
109.791	98.5011
109.787	98.4977
109.784	98.4943
109.782	98.4899
109.779	98.4808
109.776	98.4730
109.771	98.4672
109.770	98.4645
109.771	98.4591
109.774	98.4536
109.775	98.4550
109.778	98.4556
109.781	98.4493
109.779	98.4414
109.774	98.4389
109.781	98.4349
109.778	98.4303
109.780	98.4210
109.778	98.4126
109.769	98.4105
109.761	98.4153
109.759	98.4166
109.759	98.4116
109.761	98.4029
109.752	98.3957
109.752	98.3917
109.755	98.3868
109.750	98.3840
109.755	98.3766
109.757	98.3756
109.759	98.3736
109.760	98.3748
109.752	98.3739
109.753	98.3734
109.757	98.3753
109.754	98.3734
109.759	98.3667
109.760	98.3611
109.749	98.3533
109.748	98.3515
109.744	98.3474
109.744	98.3429
109.744	98.3388
109.738	98.3355
109.740	98.3309
109.741	98.3202
109.731	98.3108
109.733	98.3051
109.726	98.3073
109.716	98.3070
109.713	98.3068
109.706	98.3093
109.705	98.3062
109.704	98.2985
109.692	98.2916
109.691	98.2875
109.682	98.2825
109.680	98.2774
109.679	98.2744
109.667	98.2720
109.655	98.2654
109.643	98.2628
109.631	98.2620
109.613	98.2670
109.595	98.2653
109.578	98.2609
109.561	98.2581
109.548	98.2562
109.536	98.2548
109.527	98.2523
109.523	98.2461
109.525	98.2420
109.527	98.2368
109.531	98.2350
109.534	98.2320
109.530	98.2264
109.534	98.2253
109.538	98.2196
109.532	98.2139
109.534	98.2102
109.532	98.2071
109.533	98.2004
109.534	98.1952
109.537	98.1919
109.540	98.1901
109.541	98.1895
109.545	98.1843
109.553	98.1785
109.555	98.1729
109.553	98.1660
109.561	98.1650
109.561	98.1649
109.556	98.1655
109.561	98.1651
109.562	98.1637
109.564	98.1630
109.557	98.1601
109.560	98.1539
109.557	98.1486
109.553	98.1448
109.547	98.1436
109.543	98.1409
109.543	98.1368
109.537	98.1350
109.527	98.1303
109.531	98.1237
109.527	98.1200
109.515	98.1193
109.515	98.1207
109.507	98.1238
109.501	98.1251
109.496	98.1261
109.490	98.1223
109.491	98.1138
109.491	98.1099
109.486	98.1016
109.486	98.0966
109.480	98.0924
109.481	98.0890
109.482	98.0845
109.481	98.0812
109.480	98.0766
109.477	98.0763
109.475	98.0754
109.474	98.0742
109.468	98.0733
109.470	98.0720
109.464	98.0661
109.454	98.0618
109.450	98.0566
109.451	98.0540
109.443	98.0498
109.444	98.0469
109.441	98.0477
109.436	98.0463
109.434	98.0471
109.430	98.0486
109.429	98.0445
109.429	98.0384
109.432	98.0324
109.424	98.0244
109.424	98.0206
109.422	98.0191
109.422	98.0175
109.426	98.0122
109.436	98.0080
109.443	98.0062
109.436	98.0020
109.434	97.9977
109.431	97.9923
109.427	97.9918
109.417	97.9916
109.419	97.9889
109.417	97.9874
109.413	97.9832
109.409	97.9781
109.412	97.9746
109.416	97.9704
109.412	97.9654
109.413	97.9622
109.407	97.9602
109.403	97.9574
109.403	97.9571
109.404	97.9582
109.407	97.9571
109.402	97.9552
109.404	97.9521
109.403	97.9468
109.401	97.9401
109.401	97.9315
109.390	97.9270
109.391	97.9256
109.384	97.9250
109.386	97.9228
109.386	97.9235
109.386	97.9213
109.389	97.9180
109.393	97.9153
109.405	97.9125
109.404	97.9127
109.414	97.9120
109.409	97.9069
109.421	97.9013
109.419	97.8984
109.419	97.8962
109.410	97.8948
109.416	97.8920
109.408	97.8887
109.412	97.8862
109.411	97.8837
109.411	97.8830
109.411	97.8799
109.416	97.8737
109.420	97.8697
109.416	97.8626
109.415	97.8571
109.422	97.8537
109.427	97.8534
109.436	97.8544
109.440	97.8523
109.440	97.8501
109.444	97.8482
109.448	97.8445
109.438	97.8342
109.432	97.8254
109.425	97.8199
109.415	97.8237
109.408	97.8238
109.409	97.8201
109.402	97.8180
109.395	97.8162
109.390	97.8155
109.392	97.8153
109.383	97.8138
109.381	97.8128
109.378	97.8035
109.365	97.7955
109.360	97.7908
109.345	97.7912
109.329	97.7929
109.317	97.7990
109.303	97.8023
109.292	97.8023
109.276	97.8057
109.266	97.8074
109.256	97.8028
109.244	97.7916
109.231	97.7855
109.225	97.7787
109.217	97.7728
109.208	97.7648
109.201	97.7614
109.201	97.7609
109.207	97.7626
109.211	97.7554
109.215	97.7500
109.213	97.7463
109.213	97.7470
109.222	97.7457
109.227	97.7441
109.229	97.7422
109.229	97.7364
109.236	97.7321
109.240	97.7317
109.241	97.7340
109.237	97.7328
109.242	97.7271
109.244	97.7219
109.250	97.7233
109.254	97.7194
109.256	97.7166
109.257	97.7152
109.253	97.7119
109.242	97.7079
109.234	97.7059
109.226	97.7019
109.219	97.6983
109.217	97.6970
109.220	97.6891
109.219	97.6806
109.222	97.6759
109.217	97.6726
109.214	97.6710
109.214	97.6693
109.211	97.6680
109.209	97.6683
109.209	97.6684
109.207	97.6707
109.204	97.6731
109.204	97.6723
109.201	97.6684
109.198	97.6663
109.188	97.6680
109.177	97.6682
109.173	97.6650
109.167	97.6625
109.155	97.6577
109.151	97.6507
109.146	97.6467
109.142	97.6430
109.130	97.6390
109.128	97.6366
109.126	97.6351
109.122	97.6342
109.121	97.6316
109.119	97.6308
109.113	97.6310
109.123	97.6301
109.111	97.6240
109.107	97.6184
109.103	97.6159
109.100	97.6163
109.096	97.6141
109.101	97.6099
109.102	97.6077
109.104	97.6065
109.105	97.6058
109.111	97.6038
109.112	97.5978
109.112	97.5909
109.115	97.5866
109.108	97.5853
109.114	97.5811
109.116	97.5774
109.116	97.5767
109.116	97.5751
109.120	97.5727
109.130	97.5722
109.131	97.5723
109.129	97.5707
109.143	97.5683
109.135	97.5626
109.139	97.5596
109.143	97.5588
109.139	97.5631
109.137	97.5618
109.146	97.5586
109.142	97.5544
109.133	97.5497
109.131	97.5460
109.132	97.5443
109.120	97.5408
109.113	97.5368
109.110	97.5348
109.109	97.5344
109.113	97.5310
109.115	97.5295
109.111	97.5306
109.120	97.5309
109.124	97.5269
109.120	97.5222
109.129	97.5187
109.123	97.5189
109.120	97.5211
109.121	97.5198
109.122	97.5157
109.121	97.5123
109.120	97.5093
109.122	97.5129
109.113	97.5130
109.117	97.5111
109.112	97.5093
109.117	97.5068
109.116	97.5047
109.109	97.5001
109.097	97.4976
109.097	97.4982
109.091	97.4944
109.085	97.4937
109.087	97.4906
109.088	97.4856
109.096	97.4809
109.102	97.4783
109.109	97.4774
109.114	97.4718
109.122	97.4703
109.132	97.4695
109.140	97.4665
109.151	97.4673
109.162	97.4652
109.168	97.4604
109.174	97.4590
109.181	97.4549
109.188	97.4517
109.199	97.4510
109.208	97.4544
109.211	97.4530
109.216	97.4506
109.218	97.4516
109.215	97.4487
109.204	97.4460
109.189	97.4412
109.174	97.4360
109.166	97.4361
109.156	97.4330
109.151	97.4331
109.150	97.4320
109.151	97.4306
109.156	97.4322
109.159	97.4334
109.166	97.4310
109.169	97.4260
109.167	97.4263
109.167	97.4257
109.168	97.4212
109.167	97.4161
109.166	97.4111
109.178	97.4086
109.183	97.4081
109.185	97.4057
109.187	97.4031
109.193	97.3969
109.200	97.3920
109.204	97.3902
109.205	97.3914
109.210	97.3876
109.214	97.3846
109.215	97.3831
109.213	97.3821
109.215	97.3804
109.208	97.3759
109.208	97.3745
109.204	97.3741
109.202	97.3754
109.201	97.3746
109.198	97.3747
109.195	97.3776
109.198	97.3759
109.197	97.3724
109.203	97.3684
109.202	97.3618
109.209	97.3547
109.211	97.3510
109.217	97.3489
109.218	97.3487
109.222	97.3485
109.218	97.3513
109.218	97.3546
109.219	97.3516
109.226	97.3525
109.228	97.3532
109.228	97.3499
109.228	97.3480
109.229	97.3442
109.225	97.3399
109.226	97.3363
109.223	97.3355
109.215	97.3339
109.208	97.3334
109.201	97.3316
109.199	97.3330
109.199	97.3372
109.193	97.3360
109.192	97.3300
109.194	97.3297
109.189	97.3292
109.185	97.3277
109.183	97.3261
109.183	97.3229
109.180	97.3204
109.173	97.3189
109.166	97.3144
109.161	97.3192
109.150	97.3198
109.147	97.3143
109.153	97.3100
109.154	97.3049
109.155	97.2966
109.162	97.2906
109.166	97.2879
109.164	97.2874
109.156	97.2874
109.155	97.2833
109.145	97.2798
109.129	97.2740
109.121	97.2707
109.119	97.2717
109.110	97.2743
109.107	97.2840
109.107	97.2897
109.113	97.2840
109.122	97.2763
109.129	97.2709
109.137	97.2686
109.144	97.2750
109.148	97.2764
109.154	97.2720
109.160	97.2671
109.164	97.2638
109.172	97.2684
109.172	97.2682
109.179	97.2633
109.183	97.2644
109.190	97.2635
109.196	97.2572
109.208	97.2493
109.215	97.2489
109.213	97.2527
109.212	97.2500
109.221	97.2430
109.234	97.2417
109.242	97.2399
109.251	97.2395
109.254	97.2386
109.246	97.2311
109.245	97.2242
109.248	97.2237
109.245	97.2254
109.240	97.2230
109.248	97.2168
109.246	97.2149
109.241	97.2139
109.236	97.2136
109.239	97.2138
109.238	97.2128
109.234	97.2151
109.232	97.2227
109.231	97.2244
109.234	97.2197
109.232	97.2103
109.234	97.2016
109.240	97.2002
109.243	97.1979
109.248	97.2012
109.253	97.2036
109.250	97.2002
109.252	97.1956
109.249	97.1904
109.254	97.1882
109.251	97.1831
109.249	97.1817
109.247	97.1826
109.239	97.1794
109.225	97.1739
109.219	97.1793
109.223	97.1837
109.219	97.1816
109.212	97.1754
109.210	97.1712
109.208	97.1659
109.206	97.1657
109.206	97.1647
109.201	97.1630
109.200	97.1611
109.199	97.1622
109.195	97.1675
109.190	97.1658
109.186	97.1600
109.187	97.1545
109.194	97.1502
109.192	97.1488
109.191	97.1487
109.191	97.1463
109.192	97.1435
109.195	97.1432
109.193	97.1456
109.192	97.1508
109.190	97.1502
109.189	97.1430
109.187	97.1389
109.186	97.1380
109.183	97.1362
109.182	97.1350
109.196	97.1345
109.205	97.1312
109.208	97.1260
109.211	97.1200
109.214	97.1162
109.214	97.1132
109.217	97.1095
109.223	97.1068
109.221	97.1109
109.228	97.1077
109.237	97.1084
109.239	97.1123
109.242	97.1165
109.244	97.1249
109.243	97.1303
109.238	97.1276
109.235	97.1223
109.237	97.1212
109.237	97.1196
109.243	97.1130
109.243	97.1084
109.247	97.1052
109.247	97.0976
109.251	97.0937
109.252	97.0928
109.255	97.0881
109.258	97.0841
109.264	97.0787
109.262	97.0797
109.262	97.0782
109.262	97.0788
109.272	97.0763
109.279	97.0767
109.269	97.0774
109.265	97.0741
109.262	97.0718
109.262	97.0704
109.262	97.0702
109.267	97.0682
109.270	97.0653
109.274	97.0649
109.277	97.0644
109.278	97.0630
109.278	97.0645
109.281	97.0670
109.284	97.0649
109.283	97.0684
109.285	97.0659
109.292	97.0581
109.292	97.0542
109.299	97.0563
109.288	97.0637
109.284	97.0592
109.283	97.0521
109.283	97.0503
109.277	97.0462
109.272	97.0421
109.276	97.0398
109.264	97.0399
109.257	97.0380
109.255	97.0347
109.251	97.0331
109.250	97.0317
109.249	97.0342
109.249	97.0334
109.254	97.0315
109.257	97.0400
109.291	97.0413
109.381	97.0447
109.539	97.0423
109.798	97.0372
110.192	97.0352
110.726	97.0327
111.407	97.0315
112.214	97.0222
113.143	97.0161
114.174	97.0118
115.294	97.0099
116.484	97.0133
117.740	97.0175
119.053	97.0156
120.423	97.0163
121.834	97.0246
123.283	97.0271
124.769	97.0248
126.286	97.0206
127.833	97.0160
129.402	97.0128
130.988	97.0093
132.589	97.0085
134.204	97.0025
135.837	96.9969
137.489	96.9943
139.160	96.9897
140.844	96.9879
142.541	96.9835
144.247	96.9755
145.964	96.9683
147.686	96.9633
149.419	96.9590
151.156	96.9535
152.893	96.9513
154.627	96.9461
156.352	96.9387
158.071	96.9336
159.781	96.9299
161.484	96.9269
163.178	96.9205
164.864	96.9125
166.542	96.9015
168.216	96.8947
169.887	96.8877
171.550	96.8812
173.206	96.8711
174.854	96.8578
176.506	96.8441
178.163	96.8391
179.824	96.8313
181.491	96.8225
183.162	96.8151
184.841	96.8069
186.525	96.7982
188.210	96.7875
189.897	96.7768
191.576	96.7642
193.209	96.7488
194.750	96.7329
196.155	96.7126
197.401	96.7014
198.489	96.6896
199.434	96.6730
200.253	96.6543
200.964	96.6386
201.590	96.6246
202.146	96.6099
202.640	96.5921
203.082	96.5740
203.477	96.5550
203.837	96.5348
204.166	96.5190
204.470	96.5041
204.746	96.4889
205.005	96.4697
205.244	96.4512
205.470	96.4354
205.686	96.4178
205.890	96.4057
206.084	96.3877
206.267	96.3722
206.439	96.3609
206.600	96.3477
206.756	96.3338
206.905	96.3172
207.047	96.3057
207.181	96.2947
207.308	96.2810
207.424	96.2597
207.531	96.2419
207.630	96.2290
207.725	96.2201
207.813	96.2096
207.900	96.1987
207.985	96.1861
208.064	96.1735
208.144	96.1629
208.220	96.1498
208.295	96.1323
208.367	96.1161
208.433	96.1031
208.494	96.0907
208.551	96.0777
208.603	96.0677
208.653	96.0596
208.701	96.0464
208.746	96.0491
208.790	96.0589
208.827	96.0545
208.864	96.0357
208.898	96.0187
208.930	96.0041
208.962	95.9875
208.992	95.9706
209.025	95.9554
209.061	95.9419
209.099	95.9315
209.135	95.9265
209.169	95.9193
209.195	95.9061
209.216	95.8966
209.235	95.8864
209.253	95.8771
209.270	95.8742
209.290	95.8709
209.314	95.8670
209.341	95.8587
209.376	95.8495
209.414	95.8402
209.454	95.8334
209.490	95.8251
209.524	95.8139
209.551	95.8075
209.574	95.8021
209.590	95.7962
209.602	95.7869
209.613	95.7747
209.619	95.7650
209.624	95.7583
209.633	95.7526
209.642	95.7468
209.648	95.7368
209.652	95.7266
209.657	95.7173
209.664	95.7106
209.669	95.7066
209.673	95.6967
209.678	95.6852
209.679	95.6785
209.683	95.6721
209.684	95.6653
209.685	95.6619
209.687	95.6597
209.687	95.6535
209.687	95.6481
209.686	95.6434
209.686	95.6374
209.688	95.6284
209.692	95.6244
209.705	95.6200
209.721	95.6116
209.739	95.6008
209.755	95.5878
209.767	95.5826
209.779	95.5797
209.786	95.5759
209.790	95.5726
209.793	95.5671
209.797	95.5653
209.802	95.5584
209.810	95.5533
209.817	95.5480
209.821	95.5461
209.823	95.5430
209.823	95.5384
209.823	95.5325
209.822	95.5238
209.816	95.5173
209.809	95.5082
209.803	95.5030
209.799	95.4975
209.796	95.4892
209.786	95.4836
209.771	95.4754
209.752	95.4665
209.725	95.4601
209.698	95.4543
209.668	95.4546
209.648	95.4512
209.628	95.4445
209.614	95.4392
209.604	95.4302
209.598	95.4245
209.593	95.4169
209.590	95.4141
209.589	95.4083
209.589	95.3991
209.590	95.3932
209.592	95.3911
209.595	95.3918
209.597	95.3917
209.597	95.3885
209.592	95.3810
209.588	95.3758
209.585	95.3728
209.583	95.3659
209.580	95.3608
209.581	95.3582
209.583	95.3567
209.588	95.3509
209.593	95.3468
209.597	95.3410
209.602	95.3378
209.604	95.3334
209.608	95.3283
209.607	95.3215
209.605	95.3076
209.594	95.3010
209.583	95.3052
209.571	95.3042
209.562	95.3003
209.557	95.2930
209.552	95.2872
209.551	95.2832
209.551	95.2768
209.551	95.2712
209.550	95.2674
209.552	95.2618
209.551	95.2550
209.551	95.2502
209.551	95.2466
209.548	95.2438
209.549	95.2398
209.549	95.2350
209.544	95.2326
209.540	95.2306
209.539	95.2301
209.539	95.2264
209.541	95.2202
209.546	95.2144
209.556	95.2113
209.563	95.2072
209.568	95.2029
209.573	95.1998
209.577	95.1968
