Filename:	D:\Users\Thermal_Users\LeBlanc\Cu ink 8-10-16.tg1d

Time (min)	Weight (mg)
0.000	67.4989
1.667e-002	67.4978
3.333e-002	67.4984
5.000e-002	67.5072
6.667e-002	67.5118
8.333e-002	67.5114
1.000e-001	67.5066
0.117	67.5105
0.133	67.5135
0.150	67.5119
0.167	67.5065
0.183	67.5027
0.200	67.4997
0.217	67.5001
0.233	67.4991
0.250	67.4996
0.267	67.5044
0.283	67.5056
0.300	67.5054
0.317	67.5015
0.333	67.5015
0.350	67.5007
0.367	67.4998
0.383	67.4922
0.400	67.4811
0.417	67.4811
0.433	67.4886
0.450	67.4958
0.467	67.4969
0.483	67.4997
0.500	67.4989
0.517	67.4958
0.533	67.4984
0.550	67.5000
0.567	67.5020
0.583	67.5048
0.600	67.5014
0.617	67.4963
0.633	67.4964
0.650	67.4938
0.667	67.4904
0.683	67.4923
0.700	67.4928
0.717	67.4915
0.733	67.4906
0.750	67.4905
0.767	67.4902
0.783	67.4929
0.800	67.4989
0.817	67.5028
0.833	67.5032
0.850	67.5021
0.867	67.4963
0.883	67.4915
0.900	67.4893
0.917	67.4922
0.933	67.4963
0.950	67.4926
0.967	67.4851
0.983	67.4790
1.000	67.4748
1.017	67.4746
1.033	67.4793
1.050	67.4793
1.067	67.4773
1.083	67.4870
1.100	67.4974
1.117	67.5077
1.133	67.5115
1.150	67.5092
1.167	67.5066
1.183	67.5058
1.200	67.5065
1.217	67.5073
1.233	67.5072
1.250	67.5061
1.267	67.5052
1.283	67.5043
1.300	67.5044
1.317	67.5028
1.333	67.5005
1.350	67.4937
1.367	67.4888
1.383	67.4791
1.400	67.4663
1.417	67.4560
1.433	67.4455
1.450	67.4359
1.467	67.4282
1.483	67.4251
1.500	67.4254
1.517	67.4291
1.533	67.4309
1.550	67.4325
1.567	67.4311
1.583	67.4271
1.600	67.4130
1.617	67.4032
1.633	67.3986
1.650	67.3980
1.667	67.3942
1.683	67.3956
1.700	67.3980
1.717	67.3985
1.733	67.3934
1.750	67.3887
1.767	67.3846
1.783	67.3790
1.800	67.3756
1.817	67.3705
1.833	67.3670
1.850	67.3586
1.867	67.3508
1.883	67.3395
1.900	67.3272
1.917	67.3151
1.933	67.3034
1.950	67.2902
1.967	67.2774
1.983	67.2681
2.000	67.2604
2.017	67.2493
2.033	67.2295
2.050	67.2086
2.067	67.1876
2.083	67.1635
2.100	67.1349
2.117	67.1068
2.133	67.0724
2.150	67.0364
2.167	66.9953
2.183	66.9482
2.200	66.8898
2.217	66.8253
2.233	66.7538
2.250	66.6812
2.267	66.6033
2.283	66.5163
2.300	66.4204
2.317	66.3141
2.333	66.2002
2.350	66.0795
2.367	65.9457
2.383	65.8016
2.400	65.6462
2.417	65.4871
2.433	65.3200
2.450	65.1476
2.467	64.9684
2.483	64.7823
2.500	64.6074
2.517	64.4467
2.533	64.2995
2.550	64.1645
2.567	64.0513
2.583	63.9616
2.600	63.8841
2.617	63.8197
2.633	63.7625
2.650	63.7079
2.667	63.6610
2.683	63.6266
2.700	63.6015
2.717	63.5785
2.733	63.5531
2.750	63.5329
2.767	63.5117
2.783	63.4985
2.800	63.4841
2.817	63.4731
2.833	63.4538
2.850	63.4313
2.867	63.4268
2.883	63.4025
2.900	63.3677
2.917	63.3334
2.933	63.3122
2.950	63.2941
2.967	63.2674
2.983	63.2450
3.000	63.2227
3.017	63.2033
3.033	63.1836
3.050	63.1681
3.067	63.1611
3.083	63.1468
3.100	63.1284
3.117	63.1059
3.133	63.0893
3.150	63.0710
3.167	63.0572
3.183	63.0497
3.200	63.0499
3.217	63.0483
3.233	63.0506
3.250	63.0518
3.267	63.0508
3.283	63.0493
3.300	63.0504
3.317	63.0580
3.333	63.0712
3.350	63.1037
3.367	63.1284
3.383	63.1328
3.400	63.1232
3.417	63.1164
3.433	63.1218
3.450	63.1239
3.467	63.1102
3.483	63.0775
3.500	63.0451
3.517	63.0627
3.533	63.1052
3.550	63.1388
3.567	63.1592
3.583	63.1683
3.600	63.1679
3.617	63.1593
3.633	63.1452
3.650	63.1266
3.667	63.1034
3.683	63.0779
3.700	63.0549
3.717	63.0502
3.733	63.0558
3.750	63.0682
3.767	63.0814
3.783	63.1001
3.800	63.1083
3.817	63.1121
3.833	63.1249
3.850	63.1385
3.867	63.1490
3.883	63.1568
3.900	63.1593
3.917	63.1594
3.933	63.1678
3.950	63.1830
3.967	63.1926
3.983	63.2001
4.000	63.2072
4.017	63.2245
4.033	63.2614
4.050	63.2656
4.067	63.2572
4.083	63.2503
4.100	63.2430
4.117	63.2404
4.133	63.2452
4.150	63.2522
4.167	63.2671
4.183	63.2775
4.200	63.3018
4.217	63.3342
4.233	63.3592
4.250	63.3703
4.267	63.3685
4.283	63.3604
4.300	63.3469
4.317	63.3373
4.333	63.3331
4.350	63.3331
4.367	63.3387
4.383	63.3456
4.400	63.3610
4.417	63.3710
4.433	63.3802
4.450	63.3851
4.467	63.3809
4.483	63.3787
4.500	63.3844
4.517	63.3881
4.533	63.3994
4.550	63.4085
4.567	63.4082
4.583	63.4071
4.600	63.4045
4.617	63.4124
4.633	63.4370
4.650	63.4575
4.667	63.4614
4.683	63.4606
4.700	63.4687
4.717	63.4808
4.733	63.4908
4.750	63.4967
4.767	63.4983
4.783	63.5004
4.800	63.5018
4.817	63.5026
4.833	63.5094
4.850	63.5128
4.867	63.5175
4.883	63.5245
4.900	63.5289
4.917	63.5274
4.933	63.5254
4.950	63.5311
4.967	63.5367
4.983	63.5370
5.000	63.5397
5.017	63.5490
5.033	63.5478
5.050	63.5460
5.067	63.5526
5.083	63.5604
5.100	63.5731
5.117	63.5892
5.133	63.5993
5.150	63.6084
5.167	63.6162
5.183	63.6250
5.200	63.6283
5.217	63.6241
5.233	63.6359
5.250	63.6490
5.267	63.6583
5.283	63.6700
5.300	63.6705
5.317	63.6733
5.333	63.6859
5.350	63.6947
5.367	63.6981
5.383	63.6925
5.400	63.6880
5.417	63.6987
5.433	63.7141
5.450	63.7211
5.467	63.7321
5.483	63.7522
5.500	63.7683
5.517	63.7699
5.533	63.7787
5.550	63.7961
5.567	63.8093
5.583	63.8178
5.600	63.8186
5.617	63.8305
5.633	63.8386
5.650	63.8405
5.667	63.8544
5.683	63.8681
5.700	63.8693
5.717	63.8683
5.733	63.8713
5.750	63.8813
5.767	63.8960
5.783	63.9079
5.800	63.9160
5.817	63.9296
5.833	63.9406
5.850	63.9467
5.867	63.9565
5.883	63.9667
5.900	63.9742
5.917	63.9813
5.933	63.9899
5.950	63.9954
5.967	63.9971
5.983	63.9947
6.000	63.9896
6.017	63.9985
6.033	64.0170
6.050	64.0381
6.067	64.0494
6.083	64.0540
6.100	64.0533
6.117	64.0513
6.133	64.0565
6.150	64.0680
6.167	64.0783
6.183	64.0841
6.200	64.0945
6.217	64.1040
6.233	64.1103
6.250	64.1143
6.267	64.1174
6.283	64.1221
6.300	64.1266
6.317	64.1315
6.333	64.1384
6.350	64.1444
6.367	64.1492
6.383	64.1525
6.400	64.1613
6.417	64.1741
6.433	64.1937
6.450	64.2055
6.467	64.2164
6.483	64.2182
6.500	64.2166
6.517	64.2148
6.533	64.2159
6.550	64.2207
6.567	64.2267
6.583	64.2344
6.600	64.2446
6.617	64.2682
6.633	64.2916
6.650	64.3028
6.667	64.3058
6.683	64.3063
6.700	64.3089
6.717	64.3077
6.733	64.3056
6.750	64.3060
6.767	64.3160
6.783	64.3548
6.800	64.4028
6.817	64.4436
6.833	64.4704
6.850	64.4722
6.867	64.4682
6.883	64.4680
6.900	64.4708
6.917	64.4745
6.933	64.4796
6.950	64.4858
6.967	64.4909
6.983	64.4944
7.000	64.4969
7.017	64.4986
7.033	64.5002
7.050	64.5030
7.067	64.5072
7.083	64.5144
7.100	64.5231
7.117	64.5311
7.133	64.5372
7.150	64.5426
7.167	64.5477
7.183	64.5545
7.200	64.5668
7.217	64.5770
7.233	64.5837
7.250	64.5898
7.267	64.5957
7.283	64.6020
7.300	64.6079
7.317	64.6130
7.333	64.6181
7.350	64.6235
7.367	64.6285
7.383	64.6339
7.400	64.6399
7.417	64.6468
7.433	64.6504
7.450	64.6532
7.467	64.6586
7.483	64.6666
7.500	64.6745
7.517	64.6863
7.533	64.7023
7.550	64.7111
7.567	64.7172
7.583	64.7400
7.600	64.7627
7.617	64.7802
7.633	64.7918
7.650	64.8011
7.667	64.8112
7.683	64.8228
7.700	64.8340
7.717	64.8427
7.733	64.8488
7.750	64.8568
7.767	64.8650
7.783	64.8686
7.800	64.8766
7.817	64.8846
7.833	64.8939
7.850	64.8993
7.867	64.8951
7.883	64.8923
7.900	64.8963
7.917	64.9035
7.933	64.9100
7.950	64.9146
7.967	64.9202
7.983	64.9297
8.000	64.9373
8.017	64.9422
8.033	64.9463
8.050	64.9517
8.067	64.9597
8.083	64.9699
8.100	64.9785
8.117	64.9845
8.133	64.9947
8.150	65.0065
8.167	65.0175
8.183	65.0309
8.200	65.0397
8.217	65.0426
8.233	65.0484
8.250	65.0545
8.267	65.0590
8.283	65.0651
8.300	65.0712
8.317	65.0828
8.333	65.0925
8.350	65.0994
8.367	65.1061
8.383	65.1134
8.400	65.1231
8.417	65.1325
8.433	65.1453
8.450	65.1529
8.467	65.1588
8.483	65.1664
8.500	65.1733
8.517	65.1802
8.533	65.1859
8.550	65.1937
8.567	65.2009
8.583	65.2097
8.600	65.2132
8.617	65.2211
8.633	65.2326
8.650	65.2428
8.667	65.2539
8.683	65.2626
8.700	65.2715
8.717	65.2780
8.733	65.2861
8.750	65.2924
8.767	65.2987
8.783	65.3043
8.800	65.3128
8.817	65.3223
8.833	65.3307
8.850	65.3405
8.867	65.3477
8.883	65.3534
8.900	65.3559
8.917	65.3511
8.933	65.3645
8.950	65.3954
8.967	65.4190
8.983	65.4259
9.000	65.4312
9.017	65.4388
9.033	65.4487
9.050	65.4591
9.067	65.4681
9.083	65.4763
9.100	65.4835
9.117	65.4877
9.133	65.4876
9.150	65.4890
9.167	65.4940
9.183	65.5045
9.200	65.5205
9.217	65.5357
9.233	65.5494
9.250	65.5626
9.267	65.5671
9.283	65.5698
9.300	65.5801
9.317	65.5930
9.333	65.6066
9.350	65.6203
9.367	65.6317
9.383	65.6353
9.400	65.6396
9.417	65.6478
9.433	65.6568
9.450	65.6666
9.467	65.6776
9.483	65.6882
9.500	65.6964
9.517	65.6943
9.533	65.6815
9.550	65.6686
9.567	65.6589
9.583	65.6573
9.600	65.6609
9.617	65.6641
9.633	65.6726
9.650	65.6782
9.667	65.6853
9.683	65.6912
9.700	65.6980
9.717	65.7058
9.733	65.7136
9.750	65.7204
9.767	65.7239
9.783	65.7269
9.800	65.7334
9.817	65.7466
9.833	65.7535
9.850	65.7651
9.867	65.7788
9.883	65.7970
9.900	65.8105
9.917	65.8237
9.933	65.8333
9.950	65.8483
9.967	65.8625
9.983	65.8714
10.000	65.8814
10.017	65.8899
10.033	65.8962
10.050	65.9000
10.067	65.9058
10.083	65.9136
10.100	65.9159
10.117	65.9241
10.133	65.9351
10.150	65.9416
10.167	65.9494
10.183	65.9604
10.200	65.9744
10.217	65.9895
10.233	66.0057
10.250	66.0223
10.267	66.0353
10.283	66.0425
10.300	66.0441
10.317	66.0469
10.333	66.0510
10.350	66.0572
10.367	66.0637
10.383	66.0753
10.400	66.0850
10.417	66.0928
10.433	66.1036
10.450	66.1138
10.467	66.1164
10.483	66.1222
10.500	66.1319
10.517	66.1447
10.533	66.1559
10.550	66.1637
10.567	66.1663
10.583	66.1688
10.600	66.1760
10.617	66.1830
10.633	66.1862
10.650	66.1843
10.667	66.1875
10.683	66.1934
10.700	66.2026
10.717	66.2149
10.733	66.2228
10.750	66.2278
10.767	66.2321
10.783	66.2389
10.800	66.2440
10.817	66.2398
10.833	66.2494
10.850	66.2698
10.867	66.2844
10.883	66.2945
10.900	66.3001
10.917	66.3121
10.933	66.3183
10.950	66.3253
10.967	66.3264
10.983	66.3272
11.000	66.3349
11.017	66.3400
11.033	66.3398
11.050	66.3342
11.067	66.3366
11.083	66.3449
11.100	66.3574
11.117	66.3732
11.133	66.3868
11.150	66.3960
11.167	66.4053
11.183	66.4165
11.200	66.4282
11.217	66.4354
11.233	66.4409
11.250	66.4482
11.267	66.4559
11.283	66.4621
11.300	66.4697
11.317	66.4750
11.333	66.4793
11.350	66.4878
11.367	66.4981
11.383	66.5065
11.400	66.5129
11.417	66.5174
11.433	66.5246
11.450	66.5333
11.467	66.5353
11.483	66.5348
11.500	66.5378
11.517	66.5429
11.533	66.5463
11.550	66.5542
11.567	66.5668
11.583	66.5802
11.600	66.5922
11.617	66.6009
11.633	66.6087
11.650	66.6174
11.667	66.6248
11.683	66.6279
11.700	66.6294
11.717	66.6327
11.733	66.6383
11.750	66.6429
11.767	66.6492
11.783	66.6597
11.800	66.6692
11.817	66.6766
11.833	66.6845
11.850	66.6915
11.867	66.6967
11.883	66.7030
11.900	66.7106
11.917	66.7224
11.933	66.7321
11.950	66.7404
11.967	66.7466
11.983	66.7552
12.000	66.7645
12.017	66.7697
12.033	66.7699
12.050	66.7710
12.067	66.7834
12.083	66.8035
12.100	66.8211
12.117	66.8191
12.133	66.8053
12.150	66.7992
12.167	66.7926
12.183	66.7836
12.200	66.7796
12.217	66.7810
12.233	66.7857
12.250	66.7915
12.267	66.8018
12.283	66.8139
12.300	66.8231
12.317	66.8291
12.333	66.8348
12.350	66.8383
12.367	66.8430
12.383	66.8496
12.400	66.8558
12.417	66.8623
12.433	66.8683
12.450	66.8766
12.467	66.8845
12.483	66.8922
12.500	66.8992
12.517	66.9050
12.533	66.9107
12.550	66.9176
12.567	66.9257
12.583	66.9324
12.600	66.9379
12.617	66.9452
12.633	66.9506
12.650	66.9556
12.667	66.9614
12.683	66.9667
12.700	66.9743
12.717	66.9854
12.733	66.9959
12.750	67.0030
12.767	67.0074
12.783	67.0131
12.800	67.0196
12.817	67.0259
12.833	67.0325
12.850	67.0481
12.867	67.0665
12.883	67.0763
12.900	67.0805
12.917	67.0839
12.933	67.0894
12.950	67.0988
12.967	67.1099
12.983	67.1190
13.000	67.1237
13.017	67.1287
13.033	67.1336
13.050	67.1397
13.067	67.1431
13.083	67.1465
13.100	67.1541
13.117	67.1628
13.133	67.1699
13.150	67.1736
13.167	67.1798
13.183	67.1848
13.200	67.1898
13.217	67.1943
13.233	67.2011
13.250	67.2087
13.267	67.2176
13.283	67.2230
13.300	67.2292
13.317	67.2395
13.333	67.2501
13.350	67.2559
13.367	67.2617
13.383	67.2672
13.400	67.2720
13.417	67.2767
13.433	67.2817
13.450	67.2876
13.467	67.2936
13.483	67.2984
13.500	67.3014
13.517	67.3051
13.533	67.3069
13.550	67.3135
13.567	67.3221
13.583	67.3322
13.600	67.3417
13.617	67.3464
13.633	67.3474
13.650	67.3551
13.667	67.3687
13.683	67.3776
13.700	67.3802
13.717	67.3868
13.733	67.3922
13.750	67.3950
13.767	67.3994
13.783	67.4071
13.800	67.4073
13.817	67.4078
13.833	67.4180
13.850	67.4288
13.867	67.4401
13.883	67.4471
13.900	67.4537
13.917	67.4577
13.933	67.4626
13.950	67.4691
13.967	67.4771
13.983	67.4796
14.000	67.4797
14.017	67.4863
14.033	67.4972
14.050	67.5060
14.067	67.5115
14.083	67.5131
14.100	67.5141
14.117	67.5189
14.133	67.5196
14.150	67.5226
14.167	67.5258
14.183	67.5317
14.200	67.5363
14.217	67.5415
14.233	67.5475
14.250	67.5551
14.267	67.5672
14.283	67.5748
14.300	67.5797
14.317	67.5855
14.333	67.5933
14.350	67.5984
14.367	67.6058
14.383	67.6132
14.400	67.6184
14.417	67.6243
14.433	67.6310
14.450	67.6362
14.467	67.6414
14.483	67.6476
14.500	67.6502
14.517	67.6549
14.533	67.6616
14.550	67.6673
14.567	67.6735
14.583	67.6793
14.600	67.6847
14.617	67.6891
14.633	67.6925
14.650	67.6940
14.667	67.6997
14.683	67.7046
14.700	67.7100
14.717	67.7168
14.733	67.7227
14.750	67.7279
14.767	67.7340
14.783	67.7426
14.800	67.7511
14.817	67.7577
14.833	67.7579
14.850	67.7616
14.867	67.7696
14.883	67.7698
14.900	67.7722
14.917	67.7755
14.933	67.7822
14.950	67.7921
14.967	67.8024
14.983	67.8126
15.000	67.8200
15.017	67.8242
15.033	67.8281
15.050	67.8315
15.067	67.8377
15.083	67.8443
15.100	67.8561
15.117	67.8630
15.133	67.8665
15.150	67.8676
15.167	67.8683
15.183	67.8712
15.200	67.8768
15.217	67.8853
15.233	67.8946
15.250	67.8995
15.267	67.9068
15.283	67.9119
15.300	67.9193
15.317	67.9247
15.333	67.9331
15.350	67.9431
15.367	67.9525
15.383	67.9647
15.400	67.9743
15.417	67.9750
15.433	67.9753
15.450	67.9818
15.467	67.9892
15.483	67.9924
15.500	67.9958
15.517	68.0029
15.533	68.0099
15.550	68.0186
15.567	68.0259
15.583	68.0283
15.600	68.0335
15.617	68.0376
15.633	68.0401
15.650	68.0432
15.667	68.0484
15.683	68.0545
15.700	68.0629
15.717	68.0675
15.733	68.0723
15.750	68.0803
15.767	68.0860
15.783	68.0880
15.800	68.0880
15.817	68.0913
15.833	68.0968
15.850	68.1055
15.867	68.1148
15.883	68.1203
15.900	68.1245
15.917	68.1291
15.933	68.1339
15.950	68.1357
15.967	68.1404
15.983	68.1441
16.000	68.1523
16.017	68.1684
16.033	68.1803
16.050	68.1836
16.067	68.1891
16.083	68.1957
16.100	68.1978
16.117	68.2008
16.133	68.2046
16.150	68.2041
16.167	68.2027
16.183	68.2101
16.200	68.2176
16.217	68.2242
16.233	68.2261
16.250	68.2296
16.267	68.2356
16.283	68.2433
16.300	68.2472
16.317	68.2562
16.333	68.2674
16.350	68.2822
16.367	68.2923
16.383	68.3005
16.400	68.3037
16.417	68.3136
16.433	68.3204
16.450	68.3255
16.467	68.3314
16.483	68.3285
16.500	68.3273
16.517	68.3298
16.533	68.3341
16.550	68.3405
16.567	68.3488
16.583	68.3562
16.600	68.3651
16.617	68.3710
16.633	68.3686
16.650	68.3725
16.667	68.3842
16.683	68.3846
16.700	68.3885
16.717	68.3927
16.733	68.3999
16.750	68.4101
16.767	68.4232
16.783	68.4308
16.800	68.4402
16.817	68.4456
16.833	68.4519
16.850	68.4607
16.867	68.4715
16.883	68.4767
16.900	68.4800
16.917	68.4832
16.933	68.4887
16.950	68.4919
16.967	68.4949
16.983	68.4986
17.000	68.5020
17.017	68.5065
17.033	68.5129
17.050	68.5196
17.067	68.5251
17.083	68.5302
17.100	68.5345
17.117	68.5382
17.133	68.5428
17.150	68.5487
17.167	68.5528
17.183	68.5528
17.200	68.5554
17.217	68.5574
17.233	68.5589
17.250	68.5607
17.267	68.5580
17.283	68.5587
17.300	68.5628
17.317	68.5681
17.333	68.5739
17.350	68.5772
17.367	68.5827
17.383	68.5896
17.400	68.5952
17.417	68.5974
17.433	68.6023
17.450	68.6075
17.467	68.6119
17.483	68.6157
17.500	68.6202
17.517	68.6325
17.533	68.6431
17.550	68.6472
17.567	68.6493
17.583	68.6545
17.600	68.6576
17.617	68.6603
17.633	68.6668
17.650	68.6737
17.667	68.6762
17.683	68.6806
17.700	68.6857
17.717	68.6947
17.733	68.7028
17.750	68.7082
17.767	68.7120
17.783	68.7134
17.800	68.7179
17.817	68.7235
17.833	68.7271
17.850	68.7264
17.867	68.7316
17.883	68.7392
17.900	68.7450
17.917	68.7462
17.933	68.7490
17.950	68.7539
17.967	68.7593
17.983	68.7642
18.000	68.7691
18.017	68.7773
18.033	68.7827
18.050	68.7889
18.067	68.7923
18.083	68.7993
18.100	68.8071
18.117	68.8149
18.133	68.8214
18.150	68.8274
18.167	68.8282
18.183	68.8290
18.200	68.8338
18.217	68.8378
18.233	68.8371
18.250	68.8436
18.267	68.8513
18.283	68.8574
18.300	68.8599
18.317	68.8635
18.333	68.8728
18.350	68.8793
18.367	68.8841
18.383	68.8859
18.400	68.8880
18.417	68.8872
18.433	68.8865
18.450	68.8887
18.467	68.8959
18.483	68.9070
18.500	68.9144
18.517	68.9175
18.533	68.9204
18.550	68.9299
18.567	68.9357
18.583	68.9389
18.600	68.9416
18.617	68.9444
18.633	68.9479
18.650	68.9545
18.667	68.9579
18.683	68.9605
18.700	68.9638
18.717	68.9696
18.733	68.9757
18.750	68.9814
18.767	68.9817
18.783	68.9841
18.800	68.9885
18.817	68.9867
18.833	68.9839
18.850	68.9886
18.867	68.9942
18.883	69.0022
18.900	69.0142
18.917	69.0215
18.933	69.0210
18.950	69.0161
18.967	69.0040
18.983	68.9838
19.000	68.9694
19.017	68.9666
19.033	68.9625
19.050	68.9601
19.067	68.9426
19.083	68.9258
19.100	68.9129
19.117	68.9200
19.133	68.9362
19.150	68.9505
19.167	68.9612
19.183	68.9697
19.200	68.9762
19.217	68.9809
19.233	68.9851
19.250	68.9890
19.267	68.9930
19.283	68.9973
19.300	69.0016
19.317	69.0042
19.333	68.9956
19.350	68.9937
19.367	68.9934
19.383	68.9988
19.400	69.0051
19.417	69.0106
19.433	69.0160
19.450	69.0214
19.467	69.0243
19.483	69.0278
19.500	69.0342
19.517	69.0409
19.533	69.0473
19.550	69.0531
19.567	69.0577
19.583	69.0609
19.600	69.0644
19.617	69.0681
19.633	69.0721
19.650	69.0754
19.667	69.0782
19.683	69.0805
19.700	69.0830
19.717	69.0861
19.733	69.0894
19.750	69.0934
19.767	69.0973
19.783	69.1005
19.800	69.1029
19.817	69.1045
19.833	69.1056
19.850	69.1070
19.867	69.1015
19.883	69.0743
19.900	69.0478
19.917	69.0295
19.933	69.0195
19.950	69.0148
19.967	69.0129
19.983	69.0120
20.000	69.0127
20.017	69.0137
20.033	69.0159
20.050	69.0188
20.067	69.0228
20.083	69.0264
20.100	69.0292
20.117	69.0305
20.133	69.0320
20.150	69.0336
20.167	69.0361
20.183	69.0450
20.200	69.0804
20.217	69.1204
20.233	69.1516
20.250	69.1724
20.267	69.1836
20.283	69.1715
20.300	69.1388
20.317	69.1095
20.333	69.0913
20.350	69.1017
20.367	69.1298
20.383	69.1558
20.400	69.1749
20.417	69.1875
20.433	69.1935
20.450	69.1948
20.467	69.1955
20.483	69.1972
20.500	69.1987
20.517	69.2001
20.533	69.2026
20.550	69.2058
20.567	69.2094
20.583	69.2131
20.600	69.2176
20.617	69.2215
20.633	69.1991
20.650	69.1688
20.667	69.1455
20.683	69.1314
20.700	69.1244
20.717	69.1226
20.733	69.1241
20.750	69.1278
20.767	69.1330
20.783	69.1393
20.800	69.1457
20.817	69.1528
20.833	69.1588
20.850	69.1642
20.867	69.1844
20.883	69.2223
20.900	69.2564
20.917	69.2810
20.933	69.2981
20.950	69.3101
20.967	69.3189
20.983	69.3260
21.000	69.3316
21.017	69.3353
21.033	69.3391
21.050	69.3435
21.067	69.3484
21.083	69.3539
21.100	69.3593
21.117	69.3634
21.133	69.3750
21.150	69.3690
21.167	69.3701
21.183	69.3751
21.200	69.3804
21.217	69.3856
21.233	69.3901
21.250	69.3943
21.267	69.4231
21.283	69.4319
21.300	69.4290
21.317	69.4244
21.333	69.4208
21.350	69.4190
21.367	69.4189
21.383	69.4182
21.400	69.4190
21.417	69.4209
21.433	69.4189
21.450	69.4129
21.467	69.4200
21.483	69.4296
21.500	69.4379
21.517	69.4456
21.533	69.4719
21.550	69.5140
21.567	69.5555
21.583	69.5863
21.600	69.6084
21.617	69.6242
21.633	69.6355
21.650	69.6436
21.667	69.6495
21.683	69.6541
21.700	69.6576
21.717	69.6592
21.733	69.6604
21.750	69.6624
21.767	69.6658
21.783	69.6697
21.800	69.6736
21.817	69.6774
21.833	69.6813
21.850	69.6853
21.867	69.6888
21.883	69.6916
21.900	69.6940
21.917	69.6965
21.933	69.6995
21.950	69.7030
21.967	69.7067
21.983	69.7101
22.000	69.7128
22.017	69.7144
22.033	69.7157
22.050	69.7176
22.067	69.7200
22.083	69.7226
22.100	69.7245
22.117	69.7261
22.133	69.7276
22.150	69.7294
22.167	69.7312
22.183	69.7332
22.200	69.7358
22.217	69.7389
22.233	69.7428
22.250	69.7472
22.267	69.7513
22.283	69.7547
22.300	69.7573
22.317	69.7595
22.333	69.7617
22.350	69.7645
22.367	69.7674
22.383	69.7708
22.400	69.7747
22.417	69.7788
22.433	69.7828
22.450	69.7864
22.467	69.7897
22.483	69.7929
22.500	69.7961
22.517	69.7990
22.533	69.8022
22.550	69.8054
22.567	69.8086
22.583	69.8114
22.600	69.8135
22.617	69.8155
22.633	69.8179
22.650	69.8203
22.667	69.8218
22.683	69.8228
22.700	69.8235
22.717	69.8238
22.733	69.8238
